>compound L-Lysine
#instrument LTQ Orbitrap XL, Thermo Scientfic
>formula C6H14N2O2
#smiles NCCCC[C@H](N)C(O)=O
#inchi InChI=1S/C6H14N2O2/c7-4-2-1-3-5(8)6(9)10/h5H,1-4,7-8H2,(H,9,10)/t5-/m0/s1
>charge 1

>ms1peaks
100.111848 110953.109375
102.033748 90572.695313
102.114781 76549.539063
110.019746 47835.507813
129.102262 280003.6875
129.138567 89430.546875
130.008048 28965.527344
130.081718 30742.978516
130.08368 57575.78125
130.086202 5294260.5
130.087603 59094.15625
130.088724 60265.414063
131.089371 282286.25
133.096896 57621.15625
137.132305 70479.726563
139.982008 83816.359375
141.95881 218900.328125
146.596085 42863.90625
146.942349 48715.222656
147.019426 67443.664063
147.055797 57433.21875
147.0814 183217.234375
147.086791 34981.992188
147.088139 36710.609375
147.08915 29083.208984
147.094204 29675.787109
147.095552 40366.402344
147.097237 61343.867188
147.098922 34868.722656
147.10027 50701.496094
147.101281 69598.429688
147.102292 42030.070313
147.103977 177292.953125
147.107347 231415.65625
147.109706 554616.0625
147.112739 51121116.0
147.114424 481925.40625
147.115773 570871.25
147.117458 137346.421875
147.118469 202173.578125
147.119817 111705.085938
147.120828 128144.671875
147.121502 148944.40625
147.124536 66652.820313
147.125884 44297.003906
147.127907 58467.558594
147.128581 60009.5625
147.129255 53522.714844
147.130604 36936.324219
147.136671 43828.792969
147.13802 35523.472656
147.139368 33293.585938
147.143751 181815.71875
147.148134 27144.425781
147.169377 59209.285156
147.205804 70314.78125
147.283088 52112.339844
147.298958 26543.539063
147.63179 42845.097656
148.109664 169936.0625
148.112728 26482.236328
148.113409 30693.861328
148.115452 3089420.0
148.118176 34124.648438
149.022561 125340.335938
149.116068 99185.40625
149.118132 26080.410156
155.142526 46159.25
158.002552 921293.875
158.096003 46649.570313
158.960868 91959.703125
163.132671 189438.484375
170.096285 46174.449219
171.137707 57736.675781
171.149125 1220487.5
172.152025 55072.136719
174.127584 444423.96875
179.063653 70401.890625
182.094124 44455.53125
182.984796 341417.5625
186.955984 67840.078125
187.12606 180735.34375
190.992536 26383.257813
199.028604 44528.8125
199.179842 121438.179688
203.222581 598092.9375
223.063237 246094.5
233.173966 43774.894531
263.080586 33908.515625
279.157671 39096.996094
293.217927 1260839.125
294.22008 56142.386719
391.282894 1331947.0
392.286254 187282.609375
426.35669 40781.371094
436.339497 39034.578125
537.389605 485592.9375
538.39105 85359.335938
100.111848 62194.578125
102.033553 84089.125
105.547078 52792.402344
110.019964 29763.742188
110.069461 33489.117188
110.071206 1802849.625
110.072515 29836.517578
110.073169 25226.863281
111.020036 25247.738281
111.074631 47228.960938
113.707811 30191.316406
113.939019 42322.242188
113.996932 61291.742188
114.020155 44187.65625
114.039245 182378.703125
114.042695 27812.865234
114.048676 26057.085938
114.049366 28264.679688
114.050057 39593.878906
114.051437 39766.886719
114.053508 83474.898438
114.054658 79359.234375
114.055118 57335.546875
114.056729 202369.59375
114.057419 133782.0625
114.058569 630179.6875
114.05926 608082.8125
114.06041 37796076.0
114.061791 593361.375
114.062481 584508.6875
114.064092 199091.234375
114.065472 86227.335938
114.066623 48068.15625
114.067313 97306.835938
114.068694 24789.716797
114.069154 24910.425781
114.069844 30751.769531
114.070535 35251.605469
114.071225 43255.578125
114.074907 28621.574219
114.077669 25361.955078
114.07905 23075.953125
114.081581 186843.65625
114.100917 47979.183594
114.124172 70982.15625
114.181995 49520.96875
114.414652 31107.589844
114.559034 111918.679688
114.559961 44755.78125
114.561814 3393252.25
114.563203 54357.464844
114.563898 54150.183594
115.061868 38744.183594
115.063034 40276.550781
129.101985 151176.546875
130.08396 58795.042969
130.086202 3921085.75
130.087884 59653.882813
130.088724 48708.195313
131.089371 132544.90625
137.132305 39147.359375
141.95849 222042.03125
146.596085 40434.730469
146.934947 42595.464844
146.964557 22395.275391
147.019426 68462.25
147.053439 50611.128906
147.07163 23182.255859
147.0814 188655.296875
147.086791 29413.240234
147.089824 24816.044922
147.090835 26205.515625
147.091845 23063.623047
147.096226 30186.810547
147.097237 44350.949219
147.099259 40938.277344
147.10027 23624.779297
147.102292 93061.835938
147.103977 87900.953125
147.104988 71468.65625
147.10701 211902.734375
147.108021 152657.65625
147.109706 653712.375
147.112402 43959572.0
147.114761 670240.3125
147.115436 603460.4375
147.117795 209739.109375
147.119817 95852.179688
147.120828 26693.1875
147.121502 53100.847656
147.122514 103700.109375
147.124536 36168.78125
147.12521 30379.113281
147.126559 29621.845703
147.127233 36986.886719
147.128581 38444.777344
147.129255 27133.054688
147.131278 26364.408203
147.133975 32580.46875
147.13802 26830.0
147.143414 189240.9375
147.172075 48140.84375
147.205804 74717.585938
147.260808 22899.876953
147.290516 57564.101563
147.631452 33852.847656
148.109664 200970.015625
148.113068 23199.068359
148.115792 2630455.75
148.117835 33363.878906
148.118857 39932.777344
149.022561 101080.34375
149.041805 37759.199219
149.116412 104441.375
152.081698 1230041.125
153.084914 22388.992188
155.142526 24678.142578
156.070113 26600.501953
156.071586 25791.8125
156.073428 76902.46875
156.074533 94932.476563
156.076374 5584893.5
156.078584 73099.242188
156.079689 69410.140625
156.082267 25748.779297
156.110263 22315.630859
157.079647 211934.765625
158.002552 293133.53125
158.960868 24581.396484
163.132278 94516.53125
167.012118 22011.367188
171.137707 30690.585938
171.149125 969704.5
172.152025 31455.265625
174.12715 335753.84375
179.062747 33400.4375
180.073108 38266.90625
180.07676 3079428.25
180.079498 44071.113281
180.080868 32151.101563
181.079157 63931.488281
182.091804 234053.21875
182.984796 261374.453125
187.125577 134891.359375
190.992038 25531.09375
198.078436 25400.955078
198.083175 60610.960938
198.087387 5094383.5
198.090547 71008.203125
198.092127 58312.082031
199.09014 216687.484375
199.179842 49760.414063
210.086829 186651.6875
223.063237 61230.574219
227.053978 72861.984375
227.093403 36490.015625
227.096635 32704.769531
227.098574 29293.083984
227.102453 78578.960938
227.104392 58013.429688
227.108271 255861.46875
227.113443 21194772.0
227.117322 291439.375
227.119261 224722.59375
227.121201 43576.625
227.123787 76087.4375
227.12702 32442.96875
227.132192 35613.929688
227.172931 72897.210938
227.292626 27480.892578
228.110364 121507.984375
228.116872 1804657.125
229.117139 38284.832031
229.119104 34454.808594
279.157671 25590.570313
282.220291 26281.146484
293.216979 239529.640625
293.220772 50611.773438
294.221033 23858.048828
301.114593 142688.5
301.118541 23226.464844
373.217658 123506.140625
391.282894 744987.5625
392.284786 96199.46875
453.217244 149476.703125
537.387252 166567.609375
538.38869 51079.300781

>collision 35
74.036102 19.478025
83.947678 33077.765625
84.954651 123.24707
85.975784 84.00444
88.76371 38.354778
100.961411 18.858883
101.974533 92.516129
112.064987 158.67395
113.007813 23.062344

>collision 35
84.017349 63137.828125
101.150543 3473.18457
129.190994 132168.6875
130.00145 1523819.875

>collision 35
83.982239 41238.457031
101.062607 2230.833496
129.402756 150831.90625
130.013702 973960.0625

>collision 35
84.007416 63.496525
85.06601 292.521301
119.950378 10.429111
124.7397 7.085903
130.027802 1244.805664
131.002106 6712.395508
131.830765 10.233643
147.887039 4.939458
148.792908 5.655632

