>compound MLS000863576-01!(2Z)-2-[(3,4-dihydroxyphenyl)methylidene]-6-hydroxy-1-benzofuran-3-one
>formula C15H10O5
>ionization [M+H]+
>parentmass 271.060638
#inchi InChI=1S/C15H10O5/c16-9-2-3-10-13(7-9)20-14(15(10)19)6-8-1-4-11(17)12(18)5-8/h1-7,16-18H/b14-6-
#inchikey RGNXWPVNPFAADO
#Ion_Source LC-ESI
#Instrument qTof
#Compound_Source NIH Natural Product Library
#PI Dorrestein
#Data_Collector VVP/LMS
#Scan -1
#Precursor_MZ 271.061
#ExactMass 270.053
#Charge 1
#CAS_Number N/A
#Pubmed_ID N/A
#Smiles Oc1ccc2C(=O)/C(=C/c3ccc(O)c(O)c3)/Oc2c1
#INCHI_AUX N/A
#Library_Class 1
#SpectrumID CCMSLIB00000080161
#IonMode Positive
#UpdateWorkflowName UPDATE-SINGLE-ANNOTATED-GOLD
#LibraryQualityString Gold
#TaskID b1d8e8f6646f4e71acdff9ca3d919d08
##Scan# 1744
#SpectrumFile p2-A05_GA5_01_17982.mzXML
#LibraryName NIH_Natural_Products_Library.mgf
#MQScore -1
#Organism NIH_Natural_Products_Library
#TIC_Query 0
#RT_Query -1
#MZErrorPPM -1
#SharedPeaks 0
#MassDiff 0
#LibMZ -1
#SpecMZ 271.061
#SpecCharge 0
#internalFilename spec-00000.mgf

>collision 10
95.074135 148.0
96.017517 164.0
96.932617 72.0
97.205193 160.0
97.262108 148.0
97.336716 200.0
97.995651 212.0
99.610001 160.0
100.795448 192.0
101.680611 180.0
101.881409 212.0
101.939674 52.0
102.042191 116.0
102.096481 68.0
102.307755 208.0
102.712807 176.0
103.015602 140.0
103.051872 412.0
103.606323 176.0
103.634689 56.0
104.330833 60.0
104.495575 208.0
104.603432 72.0
105.032852 748.0
105.161942 208.0
105.239517 48.0
105.315079 164.0
105.646233 88.0
106.039383 112.0
106.390144 200.0
106.568825 204.0
106.926643 112.0
106.980156 192.0
107.050323 1116.0
107.151093 128.0
107.41703 140.0
107.516075 92.0
108.055397 260.0
108.797348 116.0
109.02832 204.0
109.285767 124.0
109.327385 144.0
110.142609 132.0
110.585884 220.0
111.12487 160.0
111.210487 200.0
111.666428 188.0
111.954758 160.0
112.306725 208.0
112.519859 180.0
112.862144 212.0
113.240952 168.0
113.817787 212.0
114.374802 96.0
114.935303 176.0
114.969444 216.0
115.053429 1708.0
115.084717 132.0
115.961807 152.0
116.05545 332.0
116.603546 104.0
116.982117 140.0
117.001488 164.0
117.034775 744.0
117.070709 404.0
118.071762 128.0
118.545876 64.0
118.669426 176.0
119.053505 124.0
119.370789 44.0
119.473015 104.0
119.664642 164.0
120.026756 268.0
120.108177 172.0
121.028259 768.0
121.755043 148.0
121.950584 192.0
122.031921 212.0
122.071503 52.0
123.005676 200.0
123.047623 128.0
123.067497 124.0
125.383438 60.0
125.755905 180.0
127.053085 552.0
127.145782 84.0
127.177208 80.0
127.264763 72.0
127.289459 60.0
128.060165 328.0
128.475616 236.0
129.065109 136.0
129.422623 88.0
130.068863 152.0
130.098251 192.0
130.837112 140.0
131.050201 200.0
131.082718 228.0
132.151733 112.0
132.277603 40.0
132.364609 92.0
132.440186 232.0
132.575363 208.0
133.028198 436.0
133.208633 216.0
133.564926 184.0
133.666153 96.0
133.877945 132.0
134.037811 560.0
134.214386 156.0
134.25589 56.0
134.719833 108.0
134.872345 196.0
134.937073 128.0
135.044418 972.0
135.154495 132.0
135.793884 168.0
136.046814 140.0
136.990982 208.0
137.023148 6524.0
137.081848 100.0
137.100479 60.0
137.137772 36.0
137.375626 80.0
137.777161 100.0
138.02478 744.0
138.228424 80.0
138.307999 96.0
138.453156 204.0
139.029877 184.0
139.055695 172.0
139.198898 100.0
139.257614 52.0
139.405624 60.0
139.506683 124.0
139.887787 136.0
140.062729 220.0
140.441544 116.0
140.502869 84.0
140.528824 164.0
140.913681 220.0
140.946762 48.0
141.069977 3228.0
141.190247 72.0
141.374771 44.0
141.488388 136.0
141.782104 48.0
142.035812 184.0
142.074554 564.0
142.095108 196.0
142.225632 72.0
142.284988 76.0
142.425095 172.0
142.774475 40.0
142.80777 140.0
142.888657 120.0
143.046005 364.0
143.081436 188.0
144.056381 728.0
144.188248 96.0
144.681 124.0
145.065323 652.0
145.316116 60.0
145.352112 120.0
145.570557 44.0
145.815598 168.0
146.044006 204.0
146.069962 180.0
146.39299 60.0
147.045364 1264.0
147.224976 32.0
148.0448 44.0
148.553802 152.0
148.682404 88.0
149.024429 516.0
149.637711 112.0
149.791138 244.0
150.033249 580.0
150.103104 136.0
150.425156 72.0
151.033615 132.0
151.054504 648.0
151.163269 132.0
151.893387 132.0
152.063843 644.0
153.070099 284.0
153.292343 140.0
153.341629 52.0
153.568466 164.0
154.07402 80.0
154.104156 176.0
154.175827 136.0
155.049103 704.0
156.055939 180.0
156.273666 200.0
157.06105 176.0
157.150711 228.0
157.317932 60.0
158.035217 212.0
158.065247 172.0
158.523499 160.0
159.041077 176.0
159.082184 348.0
160.048264 128.0
160.237167 128.0
160.436264 92.0
161.025162 1000.0
161.246536 164.0
161.367874 172.0
161.418442 80.0
161.808105 44.0
162.023376 144.0
162.342758 136.0
162.44928 160.0
162.758911 176.0
162.812241 140.0
163.03833 200.0
163.338379 48.0
165.753601 80.0
166.161285 148.0
167.036652 140.0
167.580521 168.0
167.910477 140.0
168.032837 152.0
168.056366 1680.0
169.065384 2656.0
169.238739 176.0
169.632538 92.0
169.948944 144.0
170.070984 152.0
170.751648 196.0
170.840088 188.0
171.045059 164.0
171.069092 172.0
171.235748 204.0
172.007538 92.0
172.047943 268.0
172.681671 168.0
173.062012 512.0
173.758301 100.0
174.039139 152.0
174.548904 156.0
174.617279 216.0
175.037399 352.0
175.399292 160.0
177.413651 108.0
178.848923 196.0
179.039719 192.0
179.175659 172.0
179.423508 128.0
180.815201 160.0
180.884796 236.0
181.065872 524.0
181.165985 76.0
182.069916 436.0
182.23645 160.0
183.044159 348.0
183.293915 100.0
184.046021 184.0
185.057571 132.0
187.042877 144.0
187.07486 488.0
187.151169 148.0
188.069885 204.0
189.012741 372.0
189.065186 200.0
189.201599 208.0
189.653595 204.0
190.03479 164.0
190.556458 36.0
190.86705 120.0
193.009567 184.0
193.057892 160.0
193.220032 204.0
193.290329 20.0
194.328018 140.0
194.697205 180.0
195.53125 168.0
195.779037 28.0
196.057617 72.0
196.428452 236.0
197.006302 156.0
197.06073 5324.0
197.143219 28.0
197.229858 72.0
197.999283 80.0
198.061935 1172.0
198.607498 92.0
200.046921 848.0
201.054428 572.0
201.70491 88.0
201.820816 132.0
202.061234 196.0
203.05835 220.0
206.799347 228.0
207.028381 220.0
208.05777 160.0
209.055237 300.0
209.651276 212.0
211.043121 184.0
213.054474 784.0
213.295258 104.0
214.060425 236.0
215.069763 2852.0
215.214142 128.0
215.5569 152.0
216.071487 552.0
216.432983 116.0
216.487152 48.0
217.073242 176.0
217.574982 44.0
222.873718 188.0
223.03421 116.0
224.046387 856.0
225.018234 100.0
225.05484 5012.0
225.125732 32.0
225.18248 28.0
225.313904 80.0
225.493195 72.0
225.517105 52.0
225.732361 128.0
225.85199 56.0
225.93277 140.0
226.057755 832.0
226.354782 56.0
227.065308 328.0
227.590195 120.0
227.752365 88.0
228.040817 188.0
229.214508 36.0
234.999985 204.0
235.043182 212.0
236.041565 176.0
237.057877 108.0
241.052216 192.0
242.069946 120.0
242.116409 88.0
242.909882 160.0
243.068588 688.0
243.29158 88.0
244.071426 168.0
247.82016 120.0
250.062347 136.0
251.054749 56.0
252.030167 124.0
252.785919 164.0
253.049637 1132.0
253.115128 72.0
254.050858 224.0
254.186539 40.0
254.500793 84.0
256.310669 40.0
268.17749 144.0
270.054901 108.0
270.90271 196.0
271.060638 1392.0
272.063965 168.0
273.076202 160.0
274.059998 120.0
303.593475 104.0
311.829437 108.0
324.151733 76.0
343.894348 44.0
344.219238 112.0
357.878387 112.0
374.868317 20.0
393.881927 120.0
407.237915 120.0
410.211517 44.0
415.010437 64.0
439.486176 40.0
463.80545 40.0
666.985962 56.0
681.393799 100.0
777.165222 168.0
790.63385 100.0
893.464661 56.0
898.24823 48.0
901.065979 164.0
901.890625 168.0
932.103149 64.0
956.616699 120.0
999.242676 136.0
1017.647522 124.0
1036.277954 176.0
1038.977051 140.0
1054.605591 160.0
1144.528442 116.0
1146.219238 152.0
1156.964966 176.0
1168.60437 180.0
1170.176514 120.0
1178.183228 84.0
1191.398315 104.0
1195.88855 156.0
1201.06311 156.0
1211.667358 104.0
1225.994995 132.0
1235.490967 100.0
1237.114624 64.0
1238.760254 136.0
1245.311523 136.0
1245.655762 204.0
1254.409546 208.0
1277.445312 80.0
1283.769897 68.0
1290.632202 164.0
1290.882446 184.0
1293.035767 184.0
1313.174194 168.0
1325.123291 144.0
1328.305908 152.0
1330.279663 216.0
1334.340576 108.0
1338.014648 236.0
1339.879028 152.0
1355.661499 168.0
1356.350464 148.0
1371.322754 180.0
1376.789551 68.0
1378.311279 164.0
1380.721191 72.0
1382.259888 128.0
1385.562134 64.0
1386.83667 156.0
1388.942505 148.0
1389.877197 156.0
1439.416626 164.0
1447.878784 180.0
1450.742798 188.0
1471.580811 208.0
1477.312622 112.0
1478.215454 140.0
1481.262573 224.0
1498.077881 156.0
1503.390259 152.0
