>compound MLS001141339-01!1-[2-(4,7-dimethyl-2-oxochromen-5-yl)oxyacetyl]piperidine-4-carboxylic acid
>formula C19H21NO6
>ionization [M+H]+
>parentmass 360.143005
#inchi InChI=1S/C19H21NO6/c1-11-7-14(18-12(2)9-17(22)26-15(18)8-11)25-10-16(21)20-5-3-13(4-6-20)19(23)24/h7-9,13H,3-6,10H2,1-2H3,(H,23,24)
#inchikey GROJVGYPODRKQN
#Ion_Source LC-ESI
#Instrument qTof
#Compound_Source NIH Natural Product Library
#PI Dorrestein
#Data_Collector VVP/LMS
#Scan -1
#Precursor_MZ 360.145
#ExactMass 359.137
#Charge 1
#CAS_Number N/A
#Pubmed_ID N/A
#Smiles Cc1cc(OCC(=O)N2CCC(CC2)C(=O)O)c3c(C)cc(=O)oc3c1
#INCHI_AUX N/A
#Library_Class 1
#SpectrumID CCMSLIB00000079499
#IonMode Positive
#UpdateWorkflowName UPDATE-SINGLE-ANNOTATED-GOLD
#LibraryQualityString Gold
#TaskID b1d8e8f6646f4e71acdff9ca3d919d08
##Scan# 1815
#SpectrumFile p1-B07_GB7_01_17891.mzXML
#LibraryName NIH_Natural_Products_Library.mgf
#MQScore -1
#Organism NIH_Natural_Products_Library
#TIC_Query 0
#RT_Query -1
#MZErrorPPM -1
#SharedPeaks 0
#MassDiff 0
#LibMZ -1
#SpecMZ 360.145
#SpecCharge 0
#internalFilename spec-00000.mgf

>collision 10
95.047836 392.0
95.257507 176.0
95.702866 124.0
95.956146 140.0
96.061455 168.0
96.077538 196.0
96.420715 188.0
96.843315 128.0
96.90992 180.0
97.084373 152.0
98.062157 268.0
98.380997 168.0
98.689201 128.0
99.045059 1084.0
99.186096 144.0
99.617683 40.0
99.700134 112.0
99.783623 184.0
100.047646 180.0
101.10009 184.0
102.735619 152.0
102.846603 252.0
103.153625 180.0
104.057144 144.0
105.072998 168.0
105.158409 104.0
105.258438 60.0
105.432076 76.0
106.027603 176.0
106.07785 148.0
106.150604 180.0
106.347588 232.0
107.078415 232.0
107.137154 164.0
107.153641 188.0
107.832527 136.0
108.449295 176.0
108.561249 152.0
109.028336 168.0
109.10524 92.0
109.267456 144.0
109.554749 48.0
110.057701 572.0
110.99057 216.0
112.080002 512.0
112.431519 36.0
112.625755 144.0
113.054939 64.0
113.143837 180.0
113.243355 112.0
113.451012 148.0
113.718277 244.0
114.055199 1280.0
114.094254 72.0
114.549652 44.0
114.99955 64.0
115.056534 200.0
115.106293 152.0
116.060616 124.0
116.182861 236.0
117.067802 392.0
117.132408 72.0
117.305397 96.0
117.488693 56.0
117.646225 204.0
117.838432 144.0
118.067513 192.0
118.275261 100.0
118.342369 176.0
118.44632 116.0
118.93853 172.0
119.057976 240.0
119.08577 760.0
119.142647 64.0
119.725571 152.0
120.091713 128.0
120.258408 260.0
120.777542 144.0
120.878181 124.0
120.943832 248.0
122.093246 168.0
122.963699 176.0
123.069656 152.0
123.100571 140.0
124.076035 516.0
124.11496 180.0
124.626732 240.0
125.082634 164.0
125.388611 224.0
125.405602 192.0
125.983521 124.0
126.030441 156.0
126.090408 1456.0
126.623238 72.0
127.05809 148.0
127.096481 216.0
127.215179 168.0
127.554375 196.0
127.772499 116.0
127.862511 124.0
127.97731 124.0
128.070679 7444.0
128.148483 48.0
128.168762 52.0
128.196686 152.0
128.365448 104.0
128.437042 68.0
128.784622 124.0
129.070755 836.0
129.266159 48.0
129.474426 68.0
129.839294 140.0
129.893738 68.0
130.086761 1144.0
130.166077 184.0
130.261459 52.0
130.58194 212.0
130.704788 204.0
131.046326 244.0
131.085266 180.0
131.110123 48.0
131.88382 160.0
131.968399 84.0
132.057663 384.0
132.0896 224.0
133.063141 308.0
133.176071 172.0
133.546112 220.0
134.070221 164.0
134.294662 160.0
134.52771 56.0
134.631607 92.0
135.040665 160.0
135.276688 152.0
135.371613 180.0
135.835144 32.0
136.21582 132.0
136.322693 148.0
136.669159 172.0
137.046356 168.0
139.508423 104.0
139.776535 132.0
140.026062 60.0
140.059036 32.0
141.000427 124.0
141.074631 244.0
141.146988 172.0
141.757706 124.0
142.001892 200.0
142.086304 9904.0
142.122864 48.0
142.172699 84.0
142.217789 72.0
142.345993 80.0
142.369736 72.0
142.436234 68.0
142.479004 120.0
142.635834 32.0
142.72142 72.0
142.799896 88.0
142.89505 60.0
143.091339 620.0
144.060837 420.0
144.099045 368.0
144.14682 32.0
144.589233 48.0
145.064117 1332.0
145.279297 112.0
146.066116 244.0
146.408966 172.0
147.044693 168.0
147.079468 1004.0
148.162552 92.0
149.05542 176.0
150.224045 132.0
152.530746 96.0
152.936584 132.0
153.656143 20.0
154.73616 196.0
155.926804 112.0
156.006332 132.0
156.066467 192.0
157.068436 244.0
157.603867 176.0
158.071457 168.0
158.933411 228.0
159.080307 276.0
159.490921 80.0
160.04689 152.0
160.102295 68.0
160.800629 124.0
161.05835 684.0
161.103622 232.0
162.066666 1400.0
163.048767 212.0
163.082855 164.0
163.675354 100.0
163.940277 96.0
166.018616 136.0
166.334183 144.0
167.826294 200.0
168.104874 144.0
170.078934 1240.0
170.1185 92.0
170.144455 72.0
170.955399 64.0
171.085587 152.0
172.086655 136.0
173.060974 480.0
173.122116 28.0
173.19545 72.0
174.052185 204.0
174.733734 160.0
175.043396 172.0
175.075867 2136.0
175.349899 96.0
175.684769 164.0
176.07663 236.0
176.641037 120.0
177.053925 192.0
177.398376 44.0
177.830734 208.0
177.91301 156.0
180.093857 68.0
181.77243 232.0
184.081711 140.0
185.062393 352.0
186.441528 128.0
187.906464 40.0
188.212143 52.0
188.548141 60.0
189.057343 320.0
189.2621 80.0
189.980148 132.0
190.063583 4884.0
190.287521 84.0
190.331451 76.0
190.368134 56.0
190.672089 104.0
190.971756 76.0
191.066742 1308.0
191.109299 32.0
191.312958 64.0
191.693054 44.0
192.071487 152.0
192.581375 48.0
193.159058 176.0
193.698822 52.0
193.801331 148.0
195.542465 148.0
199.003143 116.0
199.118271 196.0
199.598816 64.0
203.032654 372.0
203.070297 5876.0
203.520721 68.0
203.676926 52.0
203.986649 212.0
204.074493 1128.0
204.934326 44.0
205.086258 316.0
205.230743 80.0
205.544495 92.0
205.604431 140.0
206.681732 36.0
207.518066 72.0
207.549606 96.0
212.748642 152.0
213.079712 148.0
214.272537 128.0
215.072128 160.0
215.679077 56.0
217.233932 104.0
222.053604 72.0
223.057175 156.0
230.874481 84.0
231.064758 1900.0
231.191406 168.0
231.98494 36.0
232.076431 332.0
232.980301 60.0
233.083603 160.0
234.876755 40.0
238.247055 156.0
244.147659 188.0
244.175659 40.0
248.097458 132.0
250.098404 120.0
258.1474 212.0
266.678009 84.0
271.100159 116.0
272.087433 140.0
272.117737 156.0
274.176117 152.0
275.33078 192.0
286.126953 152.0
286.582672 56.0
287.128754 124.0
296.135406 116.0
296.539703 176.0
314.08606 172.0
314.139587 348.0
315.113312 112.0
315.138062 308.0
333.004181 144.0
340.384766 152.0
342.131165 140.0
343.151672 168.0
358.061279 180.0
360.143005 2664.0
361.134705 484.0
361.180969 296.0
361.511749 80.0
361.958405 36.0
362.15155 100.0
362.17807 120.0
363.687134 84.0
363.9263 120.0
365.81955 132.0
382.472565 84.0
397.132782 108.0
429.880249 36.0
431.809509 44.0
456.94989 80.0
466.39743 48.0
500.365875 120.0
500.962616 52.0
505.785187 116.0
510.576904 84.0
625.920654 64.0
667.890259 76.0
699.976685 88.0
726.820923 20.0
757.973633 136.0
846.262878 256.0
858.651794 164.0
859.22345 44.0
898.493103 52.0
900.367371 108.0
902.076172 84.0
954.807068 172.0
960.633728 160.0
963.615479 160.0
970.733582 40.0
1006.994629 176.0
1025.928955 224.0
1059.644043 124.0
1077.790283 212.0
1093.581665 152.0
1103.595459 248.0
1107.976807 20.0
1142.021118 160.0
1160.151489 172.0
1165.411255 144.0
1177.987427 52.0
1201.285889 148.0
1201.520386 176.0
1209.529541 172.0
1211.14978 184.0
1215.781006 164.0
1230.7052 188.0
1230.998535 164.0
1231.32666 64.0
1242.547363 240.0
1242.856079 96.0
1247.435059 32.0
1248.363159 108.0
1252.114014 160.0
1264.596313 180.0
1266.755859 204.0
1285.946899 124.0
1287.853149 136.0
1291.741577 204.0
1304.484009 140.0
1317.021851 48.0
1319.167847 228.0
1326.363037 116.0
1332.84375 124.0
1335.060791 180.0
1336.472046 160.0
1336.937744 108.0
1337.068726 52.0
1337.286987 180.0
1340.826538 156.0
1341.708618 200.0
1344.224854 160.0
1346.311646 120.0
1348.394775 160.0
1349.94458 208.0
1352.241699 164.0
1360.722778 164.0
1366.072754 116.0
1380.070312 260.0
1382.222778 32.0
1391.101562 168.0
1393.351685 216.0
1406.345825 152.0
1412.891602 164.0
1422.55127 160.0
1434.828491 128.0
1435.016968 96.0
1442.369751 160.0
1445.901855 76.0
1448.279175 152.0
1460.856812 160.0
1468.30603 156.0
1468.954346 108.0
1474.627441 76.0
1476.087646 124.0
1478.589111 112.0
1491.405029 200.0
1492.089233 140.0
1492.911865 176.0
1494.481079 124.0
1494.604248 144.0
1503.782227 236.0
