>compound Methoxsalen
>formula C12H8O4 
>ionization [M+H]+
>parentmass 217.049805
#inchi InChI=1S/C12H8O4/c1-14-12-10-8(4-5-15-10)6-7-2-3-9(13)16-11(7)12/h2-6H,1H3
#inchikey QXKHYNVANLEOEG
#Ion_Source LC-ESI
#Instrument qTof
#Compound_Source Isolated
#PI Sirenas
#Data_Collector Ed Esquenazi 
#Scan -1
#Precursor_MZ 217.05
#ExactMass 0.0
#Charge 1
#CAS_Number N/A
#Pubmed_ID N/A
#Smiles N/A
#INCHI_AUX N/A
#Library_Class 3
#SpectrumID CCMSLIB00000005191
#IonMode Positive
#UpdateWorkflowName UPDATE-SINGLE-ANNOTATED-BRONZE
#LibraryQualityString Bronze
#TaskID d19310cd93df49b68e9fcbec27720eb5
##Scan# 2
#SpectrumFile Methoxsalen.mgf
#LibraryName fda_library.mgf
#MQScore -1
#Organism fda_library
#TIC_Query 0
#RT_Query -1
#MZErrorPPM -1
#SharedPeaks 0
#MassDiff 0
#LibMZ -1
#SpecMZ 217.05
#SpecCharge 0
#internalFilename spec-00000.mgf

>collision 10
100.457611 4.280093
101.037521 41.407219
102.046242 50.5
102.615219 1.979167
103.053261 163.339203
103.091248 3.633333
104.062775 56.313011
105.032265 124.513199
105.06897 430.211914
105.112953 3.333867
105.250374 3.168269
105.31636 6.10947
105.585175 2.520833
105.65937 8.000353
105.720245 8.400001
114.473091 8.121324
114.494148 5.872578
114.549995 3.839799
114.720703 9.615942
115.054077 2185.233887
115.098251 10.75393
115.108887 3.502976
115.124336 6.122685
115.131577 3.333333
115.156006 7.650219
115.180618 8.030682
115.209984 1.166667
115.231125 7.777778
115.244179 1.777778
115.254303 6.018518
115.280945 2.740036
115.305511 21.461651
115.326744 9.555555
115.337151 6.797794
115.368416 4.8
115.379723 7.8075
115.41552 6.633796
115.430397 4.035201
115.45282 3.001225
115.475258 5.357143
115.737442 3.177083
115.973 2.740036
116.159302 2.208333
116.602989 5.490196
116.701874 2.520833
116.813721 3.352623
116.979065 5.247984
117.030777 15.84165
117.069603 990.135803
117.116547 5.452652
117.159233 5.357143
117.178719 2.500906
117.208817 4.701868
117.222633 3.973485
117.25029 4.541667
117.262314 4.588816
117.287918 5.227941
117.387123 2.395833
117.485725 8.046875
117.49559 4.006944
117.502808 6.308569
117.712296 15.83565
117.751862 6.686403
117.82357 5.918561
118.040611 1005.132996
118.082535 32.255852
118.104225 4.402991
118.145187 22.77438
118.167458 3.669271
118.211525 10.61174
118.2276 2.782408
118.254356 12.90221
118.293411 5.65
118.339455 1.166667
118.360413 2.920139
118.424751 3.015152
118.44368 2.166667
118.4664 5.534439
118.527603 8.114401
118.69854 5.787037
119.82431 14.96711
120.345451 17.95504
120.763184 19.779169
120.98877 79.523071
123.942764 7.734848
123.977249 19.82008
124.194862 2.060049
126.744278 15.73563
127.054054 238.740997
127.253029 7.26923
128.641922 9.529605
129.032883 245.697006
129.302032 2.786706
129.547256 6.530637
130.041397 368.236694
130.094177 2.92803
130.126007 5.918561
130.272507 6.540064
130.34436 3.581317
130.384323 4.898148
130.400055 3.960938
130.717865 5.346154
130.761734 2.041667
131.048904 1169.312988
131.07756 8.70376
131.099396 5.880093
131.124283 8.135
131.223602 2.333333
131.279404 3.921569
131.331299 6.406666
131.367111 2.167572
131.375107 3.766667
131.418991 6.287879
131.49527 15.44158
131.714233 4.363636
132.019196 19.224489
132.242386 9.889344
132.267349 2.942402
132.305801 3.190104
132.487411 6.955793
132.53801 3.055556
132.866623 3.0
133.064499 399.007812
133.219742 3.682449
133.247849 5.5125
133.275955 6.141902
133.307541 7.460022
133.319977 5.204475
133.42865 7.768715
133.666092 8.151124
133.867188 1.745192
133.975693 2.836111
135.04071 28.011971
135.949615 35.168251
138.962311 26.140499
138.998795 79.088654
139.093323 1.339286
139.767014 9.68443
140.508316 11.39761
142.061462 14.15625
142.421677 3.878788
143.048874 631.047974
143.080856 2.844363
143.230011 2.648284
143.422256 2.674167
143.445969 3.168056
143.488922 3.002976
143.604294 3.241667
143.889725 4.561237
144.117249 5.729167
144.294525 2.740741
144.687439 8.213611
144.85907 3.169444
145.027542 229.533798
145.064804 825.440002
145.102005 6.172024
145.114563 6.166667
145.137619 3.625
145.156998 5.482456
145.187637 10.22165
145.196167 6.660088
145.21936 10.12766
145.282257 2.501389
145.299072 13.38182
145.312347 11.28333
145.322433 9.835902
145.332474 2.845834
145.340698 4.168982
145.366119 5.333333
145.375534 6.115919
145.38588 8.889352
145.417755 6.72002
145.56543 1.979167
145.588425 2.9
145.752274 4.358232
146.035904 1409.892944
146.088455 9.603395
146.10527 3.586925
146.223053 3.080128
146.290619 6.122685
146.376801 4.115741
146.496613 5.335526
146.606155 4.402778
147.012436 2.820076
147.243286 5.817581
147.358414 2.320076
147.550003 3.742424
147.597717 1.380682
148.002274 2.0375
149.033966 3.100833
149.503601 0.895833
150.996445 46.140148
151.031235 3.041667
151.066635 1.0
156.445709 2.167572
156.635056 4.104167
157.027176 1017.833984
157.075104 5.395833
157.097366 3.109069
157.120895 2.0
157.167511 6.167658
157.177612 13.53062
157.195297 2.449074
157.216537 1.504167
157.227814 13.34681
157.258606 5.673611
157.302414 5.932246
157.347839 10.61132
157.421921 5.6875
157.44162 3.833333
157.474503 8.147817
157.509262 4.851293
157.52301 17.66923
157.561646 6.456207
157.648987 3.6
157.693085 2.816667
157.710144 3.333867
158.03598 1036.491943
158.092163 5.865572
158.103577 3.53125
158.164612 5.835227
158.186707 10.73047
158.215195 10.5123
158.265869 7.543403
158.331131 10.85299
158.395294 1.927083
158.448029 5.681159
158.460846 9.05787
158.558823 7.847757
158.628937 4.692842
158.64209 5.345446
158.763992 12.75694
158.940598 2.816667
159.053879 17.57716
159.396729 7.242816
159.519653 1.863971
159.677872 3.178571
160.020752 4.001603
160.154587 20.52039
160.166214 6.004167
160.176788 8.565104
160.188217 2.500906
160.21196 3.953373
160.223434 4.211111
160.239029 10.90358
160.27063 9.898982
160.303802 8.351191
160.333405 8.628572
160.395233 14.70628
160.446304 47.630661
160.495087 3.973485
160.514236 3.167892
160.636658 6.109601
160.668518 7.338235
160.741623 8.23713
160.756714 2.835938
160.845642 2.666667
160.874847 10.84839
160.956375 3.428571
160.968521 4.174603
161.0298 23.43442
161.059601 12672.030273
161.112778 84.000099
161.158371 9.840278
161.17627 26.973021
161.19812 11.02385
161.228439 27.60364
161.259476 20.737431
161.290878 5.8375
161.307846 34.246681
161.335068 5.0
161.346725 28.856199
161.358795 27.616461
161.399384 34.13464
161.422577 18.15592
161.468948 13.01889
161.506683 16.70532
161.552307 9.95045
161.56488 12.52207
161.578186 5.840278
161.618439 9.720109
161.638885 22.938641
161.666565 11.00063
161.678696 22.358749
161.704132 9.890476
161.778915 9.197601
161.792694 14.52559
161.985199 2.393382
162.061691 112.559303
162.0784 10.18687
162.273483 12.36113
162.456177 2.592803
162.521484 9.511535
162.543655 8.0
162.653397 3.729167
162.820236 12.88915
162.924271 3.245192
163.925964 3.035201
163.955963 6.170139
164.224533 7.50033
171.04248 138.044403
171.056412 50.809521
172.050476 59.021061
172.096237 4.683468
172.155563 2.347222
172.187515 5.038172
172.228821 5.756299
172.648895 4.667385
172.943436 3.153409
173.022827 107.031303
173.059189 2463.951904
173.115295 16.095659
173.136612 17.24151
173.156754 13.31891
173.191971 27.298849
173.225555 47.267799
173.263977 16.28558
173.282043 49.944759
173.323318 27.49469
173.335251 5.509138
173.353226 7.344415
173.365631 9.955663
173.401733 18.3601
173.436356 7.500982
173.454346 2.041667
173.591766 2.720395
173.745392 14.12927
173.807327 3.016801
173.853287 8.622549
173.914307 29.103081
173.967117 13.25694
174.001251 2.64881
174.031143 9546.186523
174.05954 4.107143
174.088211 11.66263
174.10231 13.42222
174.128571 11.78014
174.193375 15.93268
174.211288 12.47317
174.249084 20.405359
174.328003 4.962963
174.344696 6.966667
174.363525 30.602859
174.374329 17.540751
174.436203 9.35852
174.46991 24.299259
174.483658 17.423889
174.509521 3.458333
174.526764 9.866748
174.546692 4.349116
174.555725 6.502083
174.585571 9.710526
174.613052 6.972673
174.647751 6.023438
174.659729 7.157197
174.705978 9.059232
174.72464 14.88761
174.754608 13.535
174.773544 31.680639
174.8228 19.92942
174.901016 9.40322
175.033646 60.720402
175.61908 4.346688
175.628296 1.863971
175.645676 4.611883
175.702072 4.474166
175.798523 3.270833
175.881958 3.166667
176.10318 2.004167
176.283585 4.017857
176.389511 5.675595
176.43605 3.833965
177.332123 7.611111
178.252121 3.506944
178.964203 3.555556
179.000702 1.677696
179.126419 3.440476
182.273636 3.727941
182.967987 1.59375
183.826889 5.915213
183.897751 10.29271
183.922363 7.8
183.992004 3.181818
184.020447 11.37307
184.031174 9.814858
184.040863 5.928442
184.05661 6.561237
184.086548 5.911574
184.100708 2.534722
184.369949 3.490385
184.592178 3.502976
184.625793 4.670833
184.738342 3.506466
184.961731 6.685248
184.978455 32.17107
184.998505 4.677083
185.022827 4092.770996
185.080612 36.61599
185.112137 5.002083
185.132187 8.841008
185.158768 11.56157
185.177383 8.024802
185.193192 19.218451
185.204865 7.552631
185.239075 5.360119
185.254105 2.0
185.276581 6.190909
185.305756 28.254629
185.336761 11.07202
185.353622 3.802778
185.367538 7.079166
185.40004 11.96131
185.434509 15.85935
185.53833 6.246116
185.548859 8.579085
185.648071 2.666667
185.682587 12.70098
185.723175 4.833868
185.761108 7.619048
185.785049 5.678572
185.837509 8.051201
185.894913 11.05544
186.14888 7.785904
186.397018 7.008013
186.877136 7.695652
187.97757 7.870076
187.987518 5.023809
188.040054 18.53723
188.088501 5.193452
188.174103 9.556224
188.21579 4.1875
188.258881 9.080044
188.354233 7.619379
188.434479 22.12401
188.745941 2.344363
188.777466 11.36012
188.835571 5.553572
188.918137 3.984543
189.054337 4132.442871
189.110916 28.522051
189.131271 17.56678
189.142776 2.708333
189.158325 3.866667
189.176331 7.857143
189.187515 7.857143
189.223801 14.09491
189.247986 9.058121
189.262405 12.48155
189.303543 3.673611
189.327087 4.208333
189.354553 10.59419
189.372574 3.333333
189.407013 21.85417
189.453964 6.349638
189.490601 13.285
189.5401 6.398611
189.554062 4.65
189.664993 8.292969
189.679901 9.020833
189.731155 13.66789
189.827652 7.224385
189.84697 9.728536
190.005035 3.667438
190.283264 2.836111
191.211777 1.260417
191.335526 6.590278
191.520248 7.346688
191.593246 13.1629
192.019608 6.004167
193.054657 7.195631
193.163803 2.553728
196.854767 5.6875
198.745117 7.44079
199.033203 15.17255
199.279633 11.06504
199.441605 2.835938
200.652512 4.225
200.718567 2.145833
200.741013 16.752081
200.787094 40.361919
200.812119 45.023689
200.839905 10.44583
200.861145 38.522652
200.872253 22.61174
200.892258 8.162037
200.914734 53.125629
200.944717 63.44405
200.9729 6.364583
200.98616 21.7353
201.016556 76.255524
201.048004 36.80608
201.068054 42.493351
201.110504 1.835648
201.125549 6.839382
201.146408 24.97579
201.158066 7.046696
201.173676 18.682529
201.197433 8.412499
201.215439 8.228588
201.257736 17.417839
201.395233 9.531746
201.436401 2.761364
201.460922 28.494181
201.500229 8.198413
201.542953 21.74534
201.605225 14.80303
201.628418 20.02206
201.752502 12.45172
201.772278 5.327381
201.830414 10.0434
201.896942 8.370536
201.965179 24.21633
201.995483 109.272797
202.026276 40858.191406
202.087921 11.75338
202.204636 28.539619
202.25444 18.994261
202.275269 5.734722
202.306305 4.182692
202.316879 43.472542
202.370102 55.13332
202.385757 2.449074
202.418625 46.90369
202.444794 24.3699
202.478577 17.009939
202.502899 21.57613
202.528687 38.41354
202.539658 17.56522
202.566635 31.90806
202.591965 64.166008
202.619705 48.200531
202.651947 88.27404
202.673203 8.803794
202.684875 22.82272
202.707169 48.450291
202.719849 7.375
202.750793 38.500469
202.783798 29.69466
202.80452 28.876869
202.849472 10.25382
202.890778 11.14068
202.925278 2.334167
202.974777 20.702209
203.029816 387.191895
203.070465 16.767839
203.108688 3.666667
203.189117 18.98143
203.233063 23.236139
203.281631 17.758619
203.436325 18.312281
203.485855 13.03956
203.540268 8.686316
203.822113 13.66002
203.883072 7.669271
203.905228 1.0625
203.922607 4.683468
204.016953 11.50257
204.210846 2.8375
204.242661 6.446509
204.270859 1.170833
204.340561 14.31037
204.355392 4.177696
204.782806 5.640351
205.073639 4.640152
205.205307 8.148149
205.36087 4.602083
205.383301 1.6875
205.644913 2.265931
205.909637 4.193452
205.999527 5.82176
206.584106 4.834005
207.014343 11.32462
208.202332 1.701389
209.000305 4.407407
210.917191 8.070076
211.01265 4.871142
212.100693 2.695513
212.648224 2.506944
214.519226 8.060877
215.350571 5.918561
215.590622 6.846688
215.656982 2.900833
215.703171 8.130862
215.723557 8.182971
215.741806 11.6266
215.7612 50.084332
215.772354 7.054487
215.792374 49.624161
215.821518 57.274921
215.857468 44.806919
215.90065 36.817791
215.923431 11.44985
215.959442 25.406811
215.983566 82.177223
216.011887 9.337501
216.024094 1.693452
216.039276 7.613575
216.051376 12.21465
216.092926 16.98284
216.127274 12.03947
216.149094 4.153846
216.171021 5.109012
216.255371 12.85148
216.289581 21.50025
216.326645 8.034439
216.365143 3.125
216.443787 12.54095
216.521896 11.05769
216.557327 5.724085
216.587646 11.50198
216.60466 18.70249
216.618011 18.819019
216.665466 10.81548
216.773071 4.815104
217.017059 116.117104
217.049805 28928.029297
217.177261 10.1773
217.224014 8.503205
217.236206 71.692139
217.267136 13.62973
217.290924 14.62267
217.31543 3.551136
217.338165 84.123833
217.371063 13.67016
217.390778 18.731359
217.425812 10.54103
217.441879 12.46833
217.457687 7.008772
217.489365 23.06691
217.501053 31.853701
217.54274 13.57181
217.571854 42.786991
217.592941 66.578407
217.620834 14.03452
217.638443 19.43446
217.66272 8.561237
217.686737 50.063042
217.710617 15.46869
217.772491 26.30974
217.874313 12.91112
217.919724 33.476261
217.962097 9.181492
217.984833 7.570252
218.028595 3.668561
218.165482 11.25
218.255264 14.10083
218.288757 7.887821
218.455444 4.839015
218.470871 4.002976
218.546967 13.69494
218.897293 1.701389
219.222244 1.183712
219.299576 6.275678
219.41304 7.693348
219.530472 8.986743
219.608688 4.427083
219.861374 5.184627
219.908066 5.052632
220.233017 4.836538
220.252014 9.734722
220.365601 5.193452
220.884399 4.040948
221.12706 7.945946
221.505478 2.932598
223.034973 6.956207
223.186783 7.852564
232.431793 4.506667
238.662552 5.855556
501.668579 5.343546
1004.431274 1.370833
1649.739136 4.372578
