>compound Elvitegravir
>formula C23H23ClFNO5 
>ionization [M+H]+
>parentmass 448.133
#inchi InChI=1S/C23H23ClFNO5/c1-12(2)19(11-27)26-10-16(23(29)30)22(28)15-8-14(20(31-3)9-18(15)26)7-13-5-4-6-17(24)21(13)25/h4-6,8-10,12,19,27H,7,11H2,1-3H3,(H,29,30)/t19-/m1/s1
#inchikey JUZYLCPPVHEVSV
#Ion_Source LC-ESI
#Instrument qTof
#Compound_Source Isolated
#PI Sirenas
#Data_Collector Ed Esquenazi 
#Scan -1
#Precursor_MZ 448.133
#ExactMass 0.0
#Charge 1
#CAS_Number N/A
#Pubmed_ID N/A
#Smiles N/A
#INCHI_AUX N/A
#Library_Class 3
#SpectrumID CCMSLIB00000005834
#IonMode Positive
#UpdateWorkflowName UPDATE-SINGLE-ANNOTATED-BRONZE
#LibraryQualityString Bronze
#TaskID d19310cd93df49b68e9fcbec27720eb5
##Scan# 3
#SpectrumFile Elvitegravir.mgf
#LibraryName fda_library.mgf
#MQScore -1
#Organism fda_library
#TIC_Query 0
#RT_Query -1
#MZErrorPPM -1
#SharedPeaks 0
#MassDiff 0
#LibMZ -1
#SpecMZ 448.133
#SpecCharge 0
#internalFilename spec-00000.mgf

>collision 10
107.028557 144.107895
118.064514 53.855061
122.99617 8.361112
125.012314 29.02669
128.050705 27.11725
129.060928 13.4406
130.063263 23.24103
130.126297 13.16376
130.169907 6.6875
141.078842 19.520321
142.673569 7.704166
142.73175 7.005556
143.005722 7276.38916
143.056824 78.321442
143.088959 7.341667
143.112656 25.41975
143.152664 16.49597
143.16539 7.075
143.180969 11.66667
143.205948 10.40351
143.214279 4.007576
143.23085 9.102564
143.248016 4.020833
143.271439 31.617519
143.289062 35.410309
143.331116 25.3668
143.365494 27.722031
143.387634 9.041667
143.432632 8.675
143.472519 10.00097
143.510834 7.598684
143.618393 13.67593
143.641068 20.346769
143.734558 12.7963
143.964981 6.639493
144.436325 12.78602
144.478516 10.35088
145.052536 13.37037
145.324265 7.336538
153.811539 6.344048
156.045197 263.390686
156.079544 7.260417
157.771698 34.33527
158.05896 93.769379
159.0681 73.3395
160.236084 21.27
172.034973 35.006062
173.047333 30.02083
182.049667 27.782949
183.056992 81.114487
184.039154 450.430603
184.11026 3.003788
184.620422 7.391666
184.823853 20.0119
186.053284 283.988708
190.063568 29.48584
193.045151 12.51852
198.862564 8.674319
199.029495 20.073071
199.054153 27.34568
205.087845 67.221207
210.068283 92.59903
212.744888 4.120098
213.03035 23.195339
213.069931 23.673479
213.382187 10.375
213.608398 12.67628
214.010254 3.691667
214.049286 2245.156006
214.093811 5.598684
214.130096 14.50417
214.162964 17.6875
214.190186 8.401667
214.210297 15.87
214.23822 12.41523
214.289017 26.90151
214.325912 12.0498
214.367767 40.577259
214.387039 12.01071
214.417587 21.01829
214.488922 11.0049
214.774338 22.06422
215.003937 14.33854
215.536041 18.39683
215.91156 7.741667
216.490677 9.783046
217.567062 8.005555
219.804962 6.125
225.037628 49.22039
226.072937 40.233089
229.044327 23.438431
232.071945 21.4188
233.081635 101.510696
235.517242 13.98994
236.876999 6.380952
237.062363 58.23967
237.128265 7.333333
238.065094 308.784302
238.10498 6.367424
238.339584 6.932018
243.844833 9.688597
243.899124 10.9881
244.034912 16.672621
245.03804 372.67041
246.028091 35.342892
246.621094 9.866667
247.136993 10.37045
248.081009 84.317329
249.046356 56.098389
253.029434 21.494949
253.085419 20.58954
256.030792 12.10417
257.035797 23.709511
261.046967 107.009499
261.086792 23.17926
261.403198 8.880952
264.019501 31.08284
265.053894 16.523649
266.055298 56.495369
266.374176 14.57341
268.048492 34.33514
271.287689 9.142858
271.361664 8.037037
271.826538 6.121212
271.947052 7.130208
272.039124 29.02083
272.940796 12.21212
273.035065 2601.489014
273.141754 11.58671
273.184357 12.72115
273.205261 20.31045
273.335785 8.802777
273.406189 12.00872
273.477539 6.633772
273.578918 9.010715
273.639709 15.8648
273.861847 22.12097
274.15451 10.77632
274.41272 7.19853
276.056976 299.202789
276.128052 8.673612
277.366302 19.339279
280.009552 26.10656
281.019562 49.963959
286.045776 28.374029
287.917145 9.599999
288.058777 297.199707
288.323761 9.189394
288.521759 27.831301
288.661591 9.739865
293.111389 11.09513
294.051117 88.195351
294.829224 11.36004
295.498657 13.00417
296.061035 11.67803
296.719879 11.49709
298.618835 11.02083
299.964691 17.73188
300.022186 60.626678
300.05838 471.557892
300.362671 25.90196
300.827515 26.43079
301.027283 364.93631
301.237366 13.1276
301.271973 21.53146
302.004669 14.08333
308.065491 28.374029
314.044342 9.361112
314.414459 9.673077
314.489227 7.510417
315.958557 16.26759
316.053619 1310.448975
316.125549 8.001437
316.187012 8.173612
316.278046 6.111111
316.312958 21.065861
316.379181 7.057692
316.438538 11.30682
316.517059 12.44983
316.546295 6.00641
316.577209 19.703699
316.694855 6.415
316.715424 7.280303
316.849762 12.66759
316.87442 7.004386
317.723175 30.67985
318.878937 20.46888
319.250671 8.41565
326.038086 19.375
329.024323 292.933899
329.153839 10.97543
329.228302 8.844298
331.068909 12.96429
339.343231 25.89361
340.721771 11.70833
341.606262 14.3592
341.662842 19.93125
341.812775 73.46608
341.856171 55.0065
341.903625 105.962997
341.949463 59.895561
342.012695 46.973701
342.055756 102.2528
342.118134 67.178017
342.17981 70.482582
342.203491 42.984501
342.237854 25.122549
342.277588 47.377201
342.368286 4.225
342.385925 39.39801
342.477203 10.84052
342.934784 16.30225
342.979462 24.433041
343.096649 29.215891
343.300201 8.371212
343.359039 82.678543
343.553162 25.333891
343.667328 12.3049
343.696472 31.41095
343.720795 37.4958
343.801392 52.449249
343.82782 15.2
343.895447 20.03808
344.048859 65244.828125
344.126251 19.10965
344.147156 12.41987
344.34082 56.032391
344.442047 37.080132
344.572693 13.33333
344.601074 111.944702
344.63974 62.94278
344.736359 17.92803
344.783386 29.610081
344.864014 88.562263
344.910614 106.186401
344.935028 106.685204
344.960266 8.20119
345.006287 77.205307
345.130737 93.931427
345.161987 73.874809
345.19693 23.13439
345.218781 6.006945
345.261658 49.844872
345.297089 68.106148
345.393524 44.568329
345.451599 50.62289
345.491486 20.792339
345.539825 25.674801
345.563904 40.80574
345.739746 38.973679
346.102173 15.61458
346.179626 62.734192
346.279633 9.733334
346.43631 15.01071
346.621704 9.041667
346.843048 24.64167
347.291046 7.779321
347.737976 17.066179
347.798126 8.022223
347.867523 11.33712
348.068695 6.001667
348.140106 7.028153
348.518372 13.34921
348.715332 7.757576
349.082642 8.714286
349.186401 8.097222
349.673676 11.39394
349.848938 5.786765
350.285431 16.70014
350.960693 7.826754
352.692474 21.200491
352.757507 9.280702
356.205048 12.92045
359.922089 8.816667
362.060364 176.419693
362.76593 12.54825
363.283875 23.489719
386.258148 6.335318
409.669342 7.300438
412.109406 49.07412
430.121216 1338.262939
430.194855 8.358334
430.257355 10.63095
430.505524 12.64198
430.564606 15.25962
430.599365 19.077801
430.744141 14.3649
430.837524 10.69048
430.89389 12.11667
431.764313 11.97283
433.41214 6.482143
489.006012 7.333333
1129.376343 18.831619
