>compound MLS001075348-01!3-[[2-(furan-2-carbonylamino)benzoyl]amino]benzoic acid
>formula C19H14N2O5
>ionization [M+H]+
>parentmass 351.098
#inchi InChI=1S/C19H14N2O5/c22-17(20-13-6-3-5-12(11-13)19(24)25)14-7-1-2-8-15(14)21-18(23)16-9-4-10-26-16/h1-11H,(H,20,22)(H,21,23)(H,24,25)
#inchikey DRGBJEBIIJHOSV
#Ion_Source LC-ESI
#Instrument qTof
#Compound_Source NIH Natural Product Library
#PI Dorrestein
#Data_Collector VVP/LMS
#Scan -1
#Precursor_MZ 351.098
#ExactMass 350.09
#Charge 1
#CAS_Number N/A
#Pubmed_ID N/A
#Smiles OC(=O)c1cccc(NC(=O)c2ccccc2NC(=O)c3ccco3)c1
#INCHI_AUX N/A
#Library_Class 1
#SpectrumID CCMSLIB00000080070
#IonMode Positive
#UpdateWorkflowName UPDATE-SINGLE-ANNOTATED-GOLD
#LibraryQualityString Gold
#TaskID b1d8e8f6646f4e71acdff9ca3d919d08
##Scan# 2015
#SpectrumFile p2-G03_GG3_01_18051.mzXML
#LibraryName NIH_Natural_Products_Library.mgf
#MQScore -1
#Organism NIH_Natural_Products_Library
#TIC_Query 0
#RT_Query -1
#MZErrorPPM -1
#SharedPeaks 0
#MassDiff 0
#LibMZ -1
#SpecMZ 351.098
#SpecCharge 0
#internalFilename spec-00000.mgf

>collision 10
95.013191 1948.0
95.474777 128.0
95.62458 124.0
95.673248 64.0
96.012291 164.0
96.301147 128.0
97.054596 104.0
97.458939 136.0
97.56311 84.0
97.966545 220.0
98.047333 72.0
98.390549 156.0
98.775909 208.0
98.946106 72.0
100.706009 164.0
101.059853 200.0
101.564888 208.0
101.671036 132.0
102.018524 236.0
102.068794 116.0
102.316277 192.0
102.416962 152.0
102.441132 156.0
102.937302 120.0
103.495399 240.0
103.864243 132.0
104.542847 172.0
104.742378 180.0
105.299217 148.0
105.562851 192.0
105.796104 120.0
106.07061 196.0
106.353676 48.0
106.750198 84.0
106.834526 184.0
107.075363 156.0
109.013863 208.0
109.961449 112.0
110.20578 192.0
110.57592 164.0
110.980232 132.0
111.416786 168.0
111.473518 104.0
112.427498 108.0
112.539375 152.0
113.559395 168.0
113.797073 160.0
113.981865 168.0
115.046806 232.0
116.842758 220.0
117.058006 152.0
117.19371 164.0
117.29818 172.0
117.415741 156.0
117.482613 136.0
118.613602 56.0
118.676468 176.0
119.362633 104.0
120.196922 168.0
121.02536 132.0
121.246613 52.0
121.397881 60.0
123.280113 84.0
123.868652 176.0
123.955055 204.0
124.30986 112.0
124.891953 228.0
126.547844 152.0
126.872704 108.0
128.074951 204.0
128.401764 60.0
128.64772 120.0
128.731262 168.0
128.767395 188.0
129.006912 52.0
130.062759 572.0
130.173767 236.0
130.787628 160.0
131.019897 156.0
131.074585 136.0
131.560394 60.0
131.960205 108.0
132.024872 216.0
132.072266 144.0
132.218704 52.0
132.477432 156.0
132.729553 212.0
133.703583 200.0
133.949951 140.0
134.394913 196.0
134.595718 140.0
134.725067 148.0
134.875275 136.0
134.928436 192.0
135.331024 136.0
136.551666 132.0
136.744781 132.0
137.056839 152.0
137.845551 148.0
139.521423 208.0
140.050903 108.0
140.088593 104.0
140.383209 44.0
140.652176 228.0
141.595596 148.0
141.818298 208.0
142.991623 152.0
143.329788 196.0
144.258209 120.0
144.361023 120.0
144.384949 220.0
144.741516 152.0
144.763062 148.0
145.196838 56.0
145.564011 176.0
145.607239 144.0
145.717728 100.0
145.760986 84.0
145.801834 112.0
145.876343 208.0
145.895584 172.0
145.929443 144.0
146.023743 32356.0
146.091705 108.0
146.139648 100.0
146.158661 72.0
146.197525 128.0
146.234756 64.0
146.25882 76.0
146.33345 116.0
146.379196 48.0
146.415329 28.0
146.462097 48.0
146.469635 80.0
146.518906 84.0
146.591187 52.0
146.870865 120.0
146.911865 68.0
146.935989 44.0
147.02681 3580.0
147.167099 64.0
147.203918 76.0
147.288452 56.0
147.322266 36.0
147.423752 88.0
147.615936 36.0
147.713882 48.0
147.738083 52.0
147.805817 92.0
148.027527 308.0
148.065765 148.0
148.105392 76.0
148.122986 76.0
148.15448 68.0
148.185974 92.0
148.207779 68.0
148.278061 68.0
148.307144 164.0
148.326538 72.0
148.387131 40.0
148.639023 132.0
148.738907 96.0
149.300156 228.0
150.020889 124.0
150.479553 148.0
150.582108 80.0
151.411224 192.0
151.474899 156.0
152.004486 136.0
152.542358 136.0
152.812881 72.0
152.862091 80.0
153.406418 204.0
154.366882 68.0
155.655457 192.0
157.143936 40.0
157.251251 136.0
157.880844 104.0
158.040939 128.0
158.059372 388.0
159.063461 208.0
160.00618 116.0
160.106903 128.0
160.563065 232.0
160.878479 252.0
161.791122 136.0
162.097595 68.0
165.738983 120.0
166.259552 48.0
166.922333 108.0
168.042801 148.0
168.843582 136.0
170.056122 128.0
170.180725 176.0
170.825256 128.0
171.671753 140.0
177.923828 76.0
180.98468 192.0
181.461609 132.0
183.055008 196.0
183.343262 28.0
186.049942 308.0
187.056732 128.0
188.182663 164.0
190.203049 140.0
191.682709 128.0
195.340149 80.0
197.499191 164.0
200.14566 164.0
200.165375 236.0
200.542892 32.0
205.460083 120.0
206.720154 196.0
206.817459 136.0
211.483322 40.0
212.03653 180.0
212.729767 136.0
213.055023 132.0
213.514282 180.0
213.549194 188.0
213.653915 136.0
213.749924 120.0
213.773209 176.0
213.836197 192.0
213.996231 232.0
214.050217 18804.0
214.141281 80.0
214.172684 76.0
214.208359 88.0
214.311905 92.0
214.367279 52.0
214.406906 60.0
214.526123 28.0
214.580063 48.0
214.609207 72.0
214.665909 72.0
214.906723 56.0
215.052048 1328.0
215.113251 156.0
215.315399 92.0
215.695251 68.0
216.060333 560.0
216.163193 52.0
216.359299 68.0
216.379791 76.0
216.450073 104.0
216.473495 88.0
216.59053 100.0
216.742996 36.0
216.956955 96.0
217.05957 136.0
218.148834 152.0
218.793106 80.0
219.656555 44.0
220.935699 40.0
223.431183 132.0
233.794357 96.0
241.013138 152.0
265.2565 80.0
266.137787 176.0
267.094421 100.0
277.614777 52.0
281.301331 56.0
290.217712 112.0
295.000549 196.0
296.966034 56.0
297.776062 200.0
305.053162 104.0
311.49707 124.0
324.952789 96.0
330.602905 80.0
331.305359 56.0
336.691864 144.0
336.827515 64.0
350.079987 80.0
354.461853 112.0
354.727936 72.0
369.754608 80.0
389.853119 136.0
395.793945 40.0
406.818146 52.0
413.622742 36.0
454.896484 56.0
466.967712 84.0
474.724213 80.0
521.640747 152.0
612.176575 20.0
625.211426 128.0
672.828125 20.0
714.840454 88.0
787.959045 188.0
845.426208 176.0
901.763245 176.0
953.809875 224.0
956.990479 240.0
986.009949 136.0
998.718811 140.0
1000.147095 152.0
1000.719971 128.0
1003.599426 168.0
1016.858643 128.0
1029.738647 156.0
1031.40625 128.0
1033.510254 136.0
1035.040039 256.0
1035.123291 44.0
1040.567017 196.0
1051.936157 192.0
1056.466187 76.0
1098.68335 104.0
1103.299561 124.0
1113.922485 144.0
1116.155518 128.0
1123.661987 188.0
1128.517578 96.0
1144.351929 108.0
1155.203979 128.0
1156.313599 84.0
1162.589233 184.0
1166.222656 212.0
1177.512329 204.0
1184.214966 56.0
1190.318481 116.0
1203.442505 168.0
1204.198608 20.0
1209.18689 136.0
1210.703125 144.0
1223.827271 120.0
1233.895142 184.0
1241.267944 124.0
1241.828979 64.0
1243.674194 240.0
1244.818604 160.0
1254.915771 116.0
1273.143799 196.0
1275.303711 144.0
1277.301636 244.0
1279.50061 172.0
1280.07019 52.0
1293.871948 172.0
1297.088379 212.0
1301.58667 176.0
1302.655273 180.0
1307.351807 124.0
1309.021973 176.0
1312.271606 204.0
1312.783569 180.0
1316.333862 168.0
1319.766113 44.0
1325.12207 160.0
1328.217529 64.0
1329.908203 192.0
1334.303101 184.0
1335.262939 140.0
1337.307373 132.0
1339.360596 104.0
1342.829956 152.0
1348.415283 128.0
1355.865601 84.0
1357.397705 208.0
1361.206055 168.0
1363.593628 176.0
1364.593384 112.0
1366.733765 172.0
1369.383911 92.0
1369.884766 176.0
1374.182739 148.0
1375.592407 208.0
1378.332397 172.0
1380.620239 20.0
1381.555908 164.0
1383.879761 132.0
1389.319702 148.0
1391.501587 72.0
1401.266846 204.0
1401.371216 180.0
1401.952393 68.0
1405.22583 116.0
1408.749512 140.0
1421.064941 92.0
1423.624512 188.0
1423.693481 108.0
1428.351929 260.0
1429.036499 168.0
1434.157349 160.0
1442.762695 228.0
1443.034912 148.0
1445.303955 180.0
1446.825195 64.0
1455.347046 112.0
1458.020874 220.0
1463.695801 152.0
1464.456543 192.0
1467.856323 216.0
1471.763062 72.0
1474.635376 156.0
1481.499023 168.0
1484.825684 188.0
1490.959717 128.0
1493.758423 64.0
1494.112305 140.0
