>compound Kanamycin A
>formula C18H36N4O11
>ionization [M+H]+
>parentmass 485.243988
#inchi InChI=1S/C18H36N4O11/c19-2-6-10(25)12(27)13(28)18(30-6)33-16-5(21)1-4(20)15(14(16)29)32-17-11(26)8(22)9(24)7(3-23)31-17/h4-18,23-29H,1-3,19-22H2/t4-,5+,6-,7-,8+,9-,10-,11-,12+,13-,14-,15+,16-,17-,18-/m1/s1
#inchikey SBUJHOSQTJFQJX
#Ion_Source DI-ESI
#Instrument Hybrid FT
#Compound_Source commercial
#PI Dorrestein/Moore
#Data_Collector Roland Kersten
#Scan -1
#Precursor_MZ 485.0
#ExactMass 484.238
#Charge 1
#CAS_Number N/A
#Pubmed_ID N/A
#Smiles O([C@@H]2[C@@H](O)[C@H](O[C@H]1O[C@H](CN)[C@@H](O)[C@H](O)[C@H]1O)[C@@H](N)C[C@H]2N)[C@H]3O[C@@H]([C@@H](O)[C@H](N)[C@H]3O)CO
#INCHI_AUX N/A
#Library_Class 3
#SpectrumID CCMSLIB00000075308
#IonMode Positive
#UpdateWorkflowName UPDATE-SINGLE-ANNOTATED-BRONZE
#LibraryQualityString Bronze
#TaskID 216f7e25eb284d139eda10f0ea06e32c
##Scan# 5
#SpectrumFile Kanamycin_A_FT_485mz.mzXML
#LibraryName gnps_library.mgf
#MQScore -1
#Organism empty
#TIC_Query 0
#RT_Query -1
#MZErrorPPM -1
#SharedPeaks 0
#MassDiff 0
#LibMZ -1
#SpecMZ 485
#SpecCharge 0
#internalFilename spec-00000.mgf

>collision 10
130.023361 15.191068
130.053284 11.630985
130.372849 12.549274
130.398178 14.656364
130.564529 14.646991
130.865479 11.182426
131.430405 11.472622
131.432602 13.805915
131.574982 13.506962
131.850754 11.137483
131.853745 13.976279
132.254227 12.115646
132.349991 13.575042
132.398499 10.545129
132.441162 11.734766
132.721268 15.226375
132.75293 11.130616
132.950653 13.145082
133.118637 11.858903
133.311478 12.816157
133.342041 12.784089
133.35054 12.403728
133.638321 11.885671
133.639191 12.91571
133.832581 11.365347
133.967957 11.242606
134.075928 10.600077
134.087601 11.780109
134.283737 14.560125
134.344727 12.204496
134.423187 15.004266
134.674896 11.951762
134.713882 11.453379
134.74353 11.332827
134.877274 10.625359
134.971924 12.084953
135.107315 13.523629
135.19281 12.291043
135.287613 10.492894
135.339066 14.947865
135.477554 11.517954
135.522034 12.983525
135.585617 13.478298
135.74588 13.170882
135.754822 12.810741
136.067169 10.967188
136.177322 15.433846
136.217422 12.955179
136.41803 10.180635
136.603806 12.226189
136.66275 14.648232
136.79332 12.162942
136.888794 11.328509
136.896255 13.036062
136.931412 12.991171
136.970779 13.430219
136.988373 11.00895
137.044907 15.101873
137.516327 11.762632
137.866196 10.148186
138.141739 16.103535
138.158661 11.314988
138.312042 12.742348
138.480896 12.5038
138.483002 9.906043
138.616043 11.357434
138.746918 11.29314
139.055801 11.802385
139.076782 10.784806
139.078171 11.876387
139.233704 13.135403
139.277893 14.241671
139.582016 11.701859
139.737 12.590611
139.857925 11.695025
139.859131 12.651423
139.891953 13.588447
140.152405 11.72394
140.296844 12.014731
140.473648 14.191631
140.538193 11.741181
140.687912 13.808743
140.751175 11.831075
140.837906 9.907067
140.8629 12.918308
141.069153 11.94025
141.106003 13.088512
141.121536 11.38508
141.13475 12.813053
141.208054 12.027225
141.333725 11.253993
141.548706 12.515764
141.622879 11.610183
142.24028 11.366385
142.281967 12.803004
142.727997 9.465063
142.80838 11.880449
142.90831 12.692902
143.131836 11.473783
143.191513 13.600378
143.507095 12.397869
143.539703 10.645189
143.552994 13.01073
143.628052 14.20129
143.723083 10.478215
144.04512 11.598349
144.109634 14.247819
144.330704 13.939672
144.522781 11.828215
144.777176 12.281384
144.781891 13.705382
144.806961 13.155984
144.810989 12.610609
145.096985 26.706997
145.418594 11.857748
145.467789 13.708722
145.716507 12.701668
145.733185 11.089836
145.75975 12.8696
145.938904 12.438436
146.140442 10.219289
146.224533 9.928606
146.391098 11.152442
146.8349 10.517628
147.190079 13.004603
147.314957 10.426394
147.505753 10.523042
147.510468 12.488506
147.895599 12.647528
147.959259 10.408155
148.030716 12.582856
148.157822 13.185858
148.373688 14.452954
148.469009 15.259282
148.540085 12.554741
148.640686 17.050198
148.674377 12.368759
148.894989 11.321217
149.145233 11.888138
149.328995 12.274869
149.37323 10.151537
149.416153 10.711287
149.516373 10.895076
149.664429 10.70161
149.678513 14.167598
149.925674 14.820738
149.927002 12.89619
149.929886 14.039083
149.94574 13.301076
150.109879 12.936107
150.117752 12.479214
150.126022 9.667325
150.156891 10.626805
150.186646 11.179956
150.655228 12.713266
150.688187 10.882797
150.778015 11.088929
150.801254 13.528681
151.017441 14.074116
151.104584 10.699845
151.178711 11.888222
151.335785 11.202526
151.35228 14.92033
151.420547 13.712338
151.433746 11.83644
151.508484 15.445568
151.544449 12.543432
151.640244 17.594475
151.872437 12.801422
151.981155 12.256417
152.171692 10.149817
152.172089 9.98058
152.383636 10.909955
152.41214 11.762466
152.462128 14.877544
152.910599 12.872795
153.053558 13.213206
153.097397 11.735541
153.317474 10.21759
153.474609 13.51846
153.752914 11.863267
153.93576 11.748102
153.936127 9.531574
154.264786 13.165665
154.404694 11.9965
154.569717 10.98294
154.616364 12.126429
154.626633 13.993315
154.769241 10.545843
154.828308 11.260978
154.943848 13.973844
155.33931 12.446848
155.363876 14.510914
155.483093 12.754673
155.581314 14.480516
155.866013 10.889994
155.890518 16.268808
155.891037 13.119821
155.893173 11.393151
155.921265 10.25563
156.065247 13.634124
156.122559 12.497751
156.258926 10.669565
156.479813 13.842459
156.528885 12.84017
156.820297 13.228801
156.840652 10.171168
156.886734 11.351293
157.073166 12.523645
157.110733 11.326515
157.150391 13.82817
157.672913 12.938866
157.69574 12.96081
157.734543 12.111843
157.79277 15.067935
157.933624 13.902588
158.050049 14.609819
158.055847 12.757228
158.196457 14.336114
158.315704 12.184681
158.35202 13.505198
158.511169 10.246251
158.685043 11.587481
158.725174 10.536607
158.732376 11.197512
158.800186 10.248612
158.876419 14.06714
158.878891 10.281693
158.950363 12.17074
158.983322 16.093449
159.061371 11.779469
159.157486 11.512337
159.178528 12.172927
159.301071 10.392677
159.421982 12.12794
159.664185 10.528048
159.697937 10.963677
159.900604 12.277693
160.007767 12.663101
160.170319 12.877713
160.259399 10.762876
160.361572 15.322098
160.62468 10.357768
160.628555 13.304591
160.68779 11.050396
161.108185 11.833285
161.145401 15.314069
161.393051 12.666861
161.689194 13.543896
161.707413 13.400902
161.891174 19.209892
162.075851 39.607059
162.111298 13.244425
162.114975 10.247075
162.162415 12.881798
162.215271 11.740667
162.240509 12.56219
162.297989 11.048908
162.343765 14.49353
162.391327 10.998812
162.485077 12.207327
162.495544 11.271549
162.58934 15.54536
162.730392 12.734857
163.106186 84.469696
163.107544 506.188995
163.117645 11.753715
163.143341 11.189131
163.213715 9.541858
163.413315 15.103729
163.683746 12.371115
164.089401 12.705806
164.110748 23.963263
164.472046 11.627665
164.504822 11.8076
164.517151 11.557103
164.596832 10.821239
164.661987 14.002707
164.738541 13.721456
165.017303 11.172731
165.077606 13.521361
165.119125 10.790317
165.445557 10.447725
165.655884 15.915723
165.659912 13.835623
165.758652 12.553303
166.223343 10.946296
166.522202 11.871874
166.533463 12.121592
166.69223 13.171482
166.811447 12.624876
166.844193 10.857044
166.870377 11.845837
167.100128 13.238365
167.12854 10.979034
167.168442 13.480118
167.226639 10.299329
167.262909 11.464723
168.104431 10.625539
168.357391 11.233574
168.421631 13.396094
168.512207 10.67725
168.545502 12.385731
168.675049 11.138673
168.720352 14.898476
169.097641 12.382755
169.224792 11.57076
169.360703 11.704283
169.575378 14.415112
169.798325 12.43542
169.80806 12.695249
170.148224 11.503773
170.195694 11.068282
170.313751 9.95183
170.47403 10.132442
170.817612 13.396082
171.041016 11.476418
171.052887 11.171948
171.707169 15.408612
172.11879 11.694644
172.171112 10.407046
172.693909 10.656232
172.721573 17.042995
172.760513 12.386514
173.065338 12.826034
173.325043 17.008434
173.354767 12.034572
173.387543 12.070689
173.388824 10.312678
173.509705 11.679754
173.686966 13.924376
174.086746 13.554663
174.087769 15.164918
174.529739 11.203449
174.594406 12.516084
174.721451 13.05832
174.883209 12.58973
174.938126 10.425632
174.938858 10.974097
175.020798 12.367962
175.091904 10.669784
175.14093 14.413939
175.219482 13.584759
175.26535 10.904937
175.432526 10.010329
175.530365 11.945566
175.653061 11.483335
176.107986 12.135486
176.247879 14.144214
176.577469 11.452125
176.668961 12.125775
176.76535 11.721777
176.97345 11.379593
176.974518 11.313186
177.75383 11.397332
178.039215 11.656258
178.091675 13.159248
178.608963 13.94459
178.662338 15.488634
178.742477 11.482004
179.125168 12.958496
179.504349 11.597045
179.968353 12.816336
180.653915 11.506694
180.853409 13.023632
181.16922 13.163698
181.31459 11.255262
181.324799 11.927324
181.500824 10.865183
181.556152 10.897923
181.683105 13.300718
181.839355 18.673561
181.84201 13.531187
181.949997 14.31551
182.214828 13.297636
182.248627 10.586797
182.345703 10.996867
182.716934 11.249539
182.830032 11.716814
182.955704 10.340779
182.973007 11.90077
183.035492 11.90406
183.093018 35.962635
183.816422 13.157995
184.095474 10.233512
184.24971 12.625772
184.388535 10.712319
184.396027 12.908463
184.485703 14.355864
184.841705 12.46295
185.170639 11.400771
185.35376 14.993544
185.958633 12.375974
186.238556 13.061549
186.349625 14.281659
186.35437 11.609027
186.672699 10.382275
186.740097 10.469911
186.773422 12.754604
186.803299 10.480855
186.843552 11.358709
187.107452 51.246811
187.124863 10.179051
187.236664 9.838548
187.430328 12.366687
187.730911 12.338299
187.793991 11.672581
188.09343 16.112045
188.264633 12.787524
188.283691 15.126699
188.776978 11.181824
188.817078 14.063966
188.940674 10.876451
189.033142 11.565135
189.169418 12.244553
189.404114 12.626389
189.405167 10.450375
189.673935 9.349092
190.135315 12.638092
190.235077 11.247094
190.276352 12.801553
190.999359 13.443295
191.132935 11.506416
191.199509 14.315009
191.288834 14.625294
191.320328 12.038215
191.480942 12.774651
191.502075 12.208325
191.552979 13.911785
191.696609 11.131128
192.175049 11.386469
192.364624 12.335279
192.686096 11.848467
192.719177 13.593748
192.866394 10.723704
193.07222 10.868515
193.150375 12.44735
193.676056 12.363556
194.309998 12.271688
194.324707 13.540761
194.540192 12.188618
194.773499 11.189052
195.122284 10.603765
195.123001 11.356999
195.194855 13.972203
195.453888 11.65825
195.655975 12.56536
195.791214 14.527873
195.798035 10.966377
195.906006 12.820827
196.547684 19.059402
196.60997 12.8428
196.682541 13.222903
196.687012 11.327183
196.771103 13.737132
196.954483 12.035851
196.955826 13.541106
197.390121 11.194511
197.567459 10.975198
198.305252 12.224754
198.352127 12.91723
198.408524 11.939175
198.507523 11.650476
198.583969 12.6142
198.736389 14.051981
198.805435 12.924585
198.811432 10.183374
199.002121 13.534461
199.154266 10.311528
199.33934 12.035587
199.632339 11.520869
199.703842 12.896932
199.733673 14.407217
199.876709 9.907197
200.002289 15.010668
200.060684 13.356712
200.093185 12.455869
200.444214 11.595425
200.580444 13.057299
200.589432 12.838546
200.609406 13.22965
200.795288 12.189742
200.852829 15.200027
200.940521 11.049622
201.172318 11.342072
201.30249 11.858709
201.384323 9.961952
201.492844 11.335214
201.512589 12.548105
201.651123 15.07305
201.788849 12.207431
201.790817 12.226293
201.90712 11.31971
202.069534 11.200367
202.14386 16.801682
202.183212 13.86326
202.539688 11.746984
202.541229 13.222398
202.543015 13.178728
202.544266 13.233211
202.847778 14.388765
202.998596 11.932669
203.180328 11.156054
203.281052 12.273034
203.400833 17.333162
203.49324 11.537072
203.735214 13.957923
203.785736 12.439481
204.086365 48.483097
204.832184 11.83928
204.839539 14.399317
205.115891 67.350456
205.116821 33.887585
205.118011 463.886414
205.261261 15.427783
205.308136 10.90099
205.339752 10.43911
205.596451 10.667379
205.657471 12.171364
205.869934 11.333733
205.991852 12.093895
206.121338 41.277496
207.097107 11.348039
207.446426 10.007201
207.635086 12.755056
207.749176 11.685365
207.889603 13.228927
208.318634 14.959184
208.402237 10.721401
208.65477 12.087837
208.675919 13.649774
208.727188 10.585556
209.291885 12.104436
209.342529 11.796719
209.523422 12.861507
209.536896 10.295493
209.645828 12.274965
210.100952 15.445694
210.449188 11.378562
210.471786 11.041946
210.584946 11.170416
210.744293 16.106539
210.94664 12.579812
210.966812 11.01034
210.970001 9.794835
211.00119 13.560118
211.267578 12.563103
211.611633 11.726511
211.682541 11.214201
211.956543 10.38134
212.160568 13.23584
212.225937 12.460044
212.517563 12.311453
212.621872 12.303394
212.649063 14.00649
212.717575 12.229496
212.746735 12.474877
213.041168 12.885238
213.105789 12.443871
213.223846 14.797346
213.226517 11.174023
213.39769 10.694381
213.472137 10.366397
213.710281 14.314959
213.866287 12.088259
213.872955 11.746746
214.525177 13.641268
215.047714 15.136292
215.084396 11.482353
215.104095 10.03652
215.377197 11.458729
215.433823 14.767768
215.818192 12.472458
215.898621 12.081935
216.104553 11.997849
216.185532 12.706258
216.238556 10.461353
216.322968 12.177112
216.853546 11.999079
216.865692 11.249738
217.103348 13.898107
217.217667 11.592746
217.310303 12.447357
217.445129 13.049265
217.612473 13.004776
217.659637 11.247393
218.052017 11.246918
218.163803 10.987361
218.294281 17.588915
218.345062 15.820087
218.475479 11.553679
218.813309 13.256689
219.244232 10.899952
219.357864 13.085807
219.380981 14.033225
219.717087 11.974226
219.722549 13.670115
219.819336 11.47146
219.869736 12.750157
219.904099 11.097943
220.19754 11.377319
220.350815 11.238165
220.431015 11.814818
220.783432 13.910041
221.090317 14.822464
221.261871 11.53434
221.390839 11.061134
221.581497 11.058516
222.096924 12.671689
222.164505 11.447485
222.238052 13.526934
222.595184 16.618145
222.711685 14.462077
222.935196 12.276696
223.008331 10.976456
223.102753 12.601454
223.112701 12.716487
223.822906 13.168137
223.960007 15.254817
223.99649 12.891568
224.02832 11.740024
224.215958 11.683601
224.246887 10.62559
224.264313 16.793478
224.329407 11.565751
224.551987 12.045373
224.553894 10.533773
224.683487 11.410657
224.801071 14.570098
224.853897 11.785792
224.866272 11.054015
224.908432 11.966166
225.102997 13.703958
225.541107 12.045551
225.782974 15.558659
226.13562 11.571623
226.248535 13.258287
226.572739 17.231052
226.785583 10.949862
227.063339 11.792413
227.090057 13.676981
227.261246 10.362871
227.472717 11.148332
227.698074 11.179763
227.999374 13.252536
228.181534 11.73916
228.465088 10.523077
229.247269 13.767263
229.626968 12.372111
229.667679 11.310713
230.593887 13.638266
230.880783 14.347493
231.383331 10.722356
231.46347 12.186961
231.940475 12.992923
232.077454 13.860106
232.131851 10.854
232.17775 10.81229
232.787537 11.98705
232.78981 14.009545
233.110519 12.209959
233.445129 14.070956
233.47023 14.277179
233.946854 12.37001
234.108475 11.951479
234.409729 9.736308
234.455109 12.150562
234.54332 12.684473
235.123672 14.344311
235.320633 12.637549
235.427322 13.036913
235.465256 14.255404
235.578491 10.768497
235.689255 10.621469
235.83873 11.009017
236.159302 12.554212
236.694275 10.32601
236.695114 11.857904
236.800491 11.59271
237.20253 13.762418
237.278625 15.188951
237.521622 13.912093
238.679581 11.599973
238.855484 10.082845
239.034637 11.411196
239.169968 14.67751
239.305878 12.982818
239.603317 13.752259
239.786758 11.706184
239.887146 13.034348
240.423477 14.53252
240.684006 15.119714
241.11264 11.490838
241.592789 12.412237
241.628479 11.157878
241.687683 12.492074
241.922821 13.547502
242.144852 13.061646
242.590103 10.391521
243.032211 13.831953
243.959412 16.556057
243.985107 10.59256
244.093979 12.196838
244.155334 10.896512
244.330063 14.550626
244.621948 13.441166
245.153549 13.52794
245.395615 13.627368
245.578232 14.382222
245.66069 13.898462
245.762177 11.54608
245.767166 14.304056
246.246643 11.251237
246.302063 11.25661
246.372025 10.577996
246.593323 10.662789
246.706879 9.662563
246.717178 11.540009
246.987289 11.811448
247.201416 11.941124
247.254013 13.886459
247.520432 11.441769
248.494095 10.486575
248.639297 11.488099
249.025818 11.881054
249.383179 13.011087
249.403702 13.05393
249.690826 13.21708
250.010925 15.040958
250.584869 12.885783
250.902542 12.806675
251.389923 12.115658
251.510101 14.133575
251.709473 11.125152
252.241241 14.938132
252.701614 12.80427
252.863571 12.00736
252.99704 13.039178
253.044296 12.025104
253.267151 12.102324
253.513535 16.456551
253.735062 11.914353
253.863693 10.748153
253.881653 11.634984
254.310944 12.9787
254.311874 14.018289
254.594299 14.244026
254.656296 14.925554
254.729736 11.181858
254.782623 22.560001
254.85173 14.878429
254.864212 11.723343
254.901184 10.625308
254.946991 12.194415
255.119278 12.997235
255.284744 12.731274
255.952393 12.196537
256.56546 11.01036
256.599915 14.139543
257.380371 15.5127
257.486328 10.904184
257.738251 14.989689
257.795593 14.150447
257.835815 13.060277
258.045776 12.165776
258.160278 12.689494
258.225922 11.180728
258.286957 10.600251
258.300964 16.080957
258.505707 11.722054
259.173157 12.231022
259.561981 11.433422
260.030975 11.249089
260.995056 13.975886
261.041504 15.716077
261.090393 13.257855
261.484802 13.443295
261.485779 13.314024
261.637024 11.702374
261.640686 13.606892
262.542328 11.22086
262.82135 12.133081
262.892059 12.888529
263.123322 54.237778
263.210175 12.411264
263.213593 11.522433
263.368378 12.808201
263.545624 13.013353
263.560272 10.448495
263.581451 13.653676
263.641815 12.15362
263.704773 11.778066
264.107239 22.071062
264.332336 11.59798
264.39447 12.23088
264.414948 14.450647
264.587921 11.956589
264.679291 10.865637
265.16214 12.589596
265.232269 11.9145
265.325073 9.782865
265.326691 12.622009
265.834167 9.826241
266.988403 11.824484
267.038818 11.244002
267.180695 12.553708
267.544861 14.441359
267.894226 10.712732
268.104584 13.323321
268.166229 11.354882
268.293976 13.242854
268.296906 17.408726
268.352722 12.577275
268.433075 14.009584
268.775238 12.992592
268.868103 12.327837
269.049347 11.329174
269.107056 11.761971
269.520721 12.425383
270.123688 12.223853
270.251526 10.141547
270.253204 13.038156
270.547455 10.627229
270.603729 11.234013
270.706482 15.213826
270.768097 11.112093
270.867767 11.968272
271.07193 13.196027
271.089355 12.125916
271.128418 51.641006
271.255188 11.399023
271.427429 12.289322
271.538422 10.572028
271.634735 11.238094
271.943481 12.757221
272.013306 15.807703
272.221344 11.146652
272.377869 13.995942
272.432465 10.381601
272.489899 13.01822
272.565979 11.809616
272.600006 12.890944
272.966858 17.91802
273.187744 12.516732
273.706085 13.44391
273.937714 14.05224
274.389801 14.560916
274.442047 15.279636
275.068665 14.124483
275.092712 16.59276
276.577942 12.06019
276.615387 14.266736
276.771301 13.632159
277.034851 10.564009
277.630188 11.645925
277.632385 12.243456
277.734344 10.898558
277.809204 11.517052
277.864716 10.893363
278.115234 12.193794
278.327759 13.952228
279.188812 12.212714
279.238312 13.568416
279.660797 10.949889
279.715881 12.92651
281.133911 25.253199
281.290009 14.138986
282.951202 12.425699
283.308197 13.81843
283.391937 11.906524
283.717041 11.020619
283.769745 13.178259
283.887573 10.720525
283.950226 10.619032
284.114594 13.70431
284.187469 12.103555
284.318573 11.294913
284.400238 14.165618
284.574005 12.051051
284.70816 18.649847
285.369324 12.333876
285.972534 10.765982
286.949982 12.578368
287.12323 19.610111
287.378204 12.453959
287.420654 10.751814
287.655121 13.978308
287.97583 11.335227
288.090546 19.44215
288.169952 10.189266
288.940582 15.070495
288.952423 13.584099
289.120392 11.938664
289.139191 32.990738
289.393311 11.447173
289.470154 12.538677
289.516785 10.474944
289.580597 14.175052
289.798218 12.221749
290.078552 11.583344
290.22583 10.806353
290.552643 13.649081
290.903717 16.686152
291.269562 13.467893
291.327209 11.303828
291.373169 15.535556
291.864502 11.992881
291.914246 13.269846
