>compound Glimepiride
>formula C24H34N4O5S 
>ionization [M+H]+
>parentmass 491.2322676400905
#inchi InChI=1S/C24H34N4O5S/c1-4-21-17(3)15-28(22(21)29)24(31)25-14-13-18-7-11-20(12-8-18)34(32,33)27-23(30)26-19-9-5-16(2)6-10-19/h7-8,11-12,16,19H,4-6,9-10,13-15H2,1-3H3,(H,25,31)(H2,26,27,30)
#inchikey WIGIZIANZCJQQY
#Ion_Source LC-ESI
#Instrument qTof
#Compound_Source Isolated
#PI Sirenas
#Data_Collector Ed Esquenazi 
#Scan -1
#Precursor_MZ 491.236
#ExactMass 0.0
#Charge 1
#CAS_Number N/A
#Pubmed_ID N/A
#Smiles N/A
#INCHI_AUX N/A
#Library_Class 3
#SpectrumID CCMSLIB00000005741
#IonMode Positive
#UpdateWorkflowName UPDATE-SINGLE-ANNOTATED-BRONZE
#LibraryQualityString Bronze
#TaskID d19310cd93df49b68e9fcbec27720eb5
##Scan# 2
#SpectrumFile Glimepiride.mgf
#LibraryName fda_library.mgf
#MQScore -1
#Organism fda_library
#TIC_Query 0
#RT_Query -1
#MZErrorPPM -1
#SharedPeaks 0
#MassDiff 0
#LibMZ -1
#SpecMZ 491.236
#SpecCharge 0
#internalFilename spec-00000.mgf

>collision 10
103.053955 623.505981
103.09362 3.625
113.525238 8.220109
114.128105 800.7146
114.156265 13.50298
114.204575 2.5
114.405029 4.080357
118.389404 6.502717
121.063492 12.78547
121.372604 9.0625
122.059341 135.8125
123.093521 112.182404
123.390381 13.50216
124.075096 1623.696045
124.553734 12.04167
125.339325 119.060402
125.377792 46.471481
125.409332 26.122841
125.431564 53.490162
125.469147 37.861111
125.498383 4.0
125.505295 26.0152
125.525345 59.100121
125.544449 31.027439
125.567833 20.04891
125.591225 12.50216
125.598732 47.589291
125.626297 10.5744
125.634842 50.58065
125.684486 9.909091
125.704308 38.989399
125.946259 11.60526
125.997025 15.42006
126.016602 39.01717
126.063393 12.08654
126.091721 29594.189453
126.139732 58.76667
126.172897 53.375961
126.227516 19.00169
126.240417 40.435131
126.259201 8.120193
126.272995 65.240501
126.286156 19.245001
126.296379 46.858189
126.321167 25.002979
126.377701 33.830002
126.401215 52.090912
126.418793 60.623249
126.431633 15.95924
126.447235 13.0625
126.463722 104.543701
126.481705 13.54464
126.493423 15.70439
126.520699 35.607712
126.540245 30.55191
126.566208 62.384918
126.589722 58.01442
126.615982 46.111309
126.634979 56.290871
126.657684 23.123211
126.724396 47.086201
126.744034 20.623819
126.774452 28.65625
126.799278 8.797794
126.814491 15.23684
126.879425 20.226721
126.985069 37.867378
127.065994 49.075001
127.208939 22.26008
127.239891 16.9443
127.388817 15.00893
127.454063 8.006945
127.685722 9.3025
127.855232 15.89358
127.970398 3.6125
128.114517 2.5125
128.611176 7.145833
128.757111 7.005682
128.877625 3.3125
130.59935 13.77083
146.056259 39.01524
146.065903 74.057747
151.020569 217.264801
151.055847 5.591912
151.071793 3.125
151.165771 14.03064
151.769775 42.841911
152.070511 412.628296
152.322876 14.5747
152.413025 23.60976
166.098694 26.56612
166.889267 25.715281
167.016739 1551.383057
167.073029 8.574405
167.140488 35.015469
167.293442 9.035714
167.910461 18.53064
170.081543 16.012501
174.068649 12.79779
179.079453 245.132706
181.097244 1513.560059
181.153748 8.038462
181.163071 2.541667
181.234314 27.822371
181.303604 11.50833
181.357483 7.875
181.393127 19.148109
181.566025 15.01815
181.678543 5.004807
181.71196 9.556818
182.989182 13.86058
184.038513 52.44059
184.667114 7.125
192.011902 32.975609
210.020859 439.0513
210.105087 2.5
210.150589 15.09879
210.62558 28.838909
215.055634 13.25
229.062622 180.577194
229.646805 9.002976
230.16391 53.064079
254.177032 25.88242
270.141418 26.177891
271.142456 263.023987
271.208557 4.504807
271.231903 7.898026
271.357513 13.5194
271.625183 5.333333
271.753082 8.59375
287.135071 84.003571
287.58429 5.504807
288.278473 10.04735
290.411835 14.625
290.485718 6.204167
292.099945 353.949585
292.265656 32.823009
292.329132 16.53125
292.410187 15.00961
292.469635 6.0375
299.077637 58.337688
317.094604 115.278801
332.972046 42.29565
333.070404 40.378792
333.117249 34.945839
333.143372 12.03846
333.226837 12.77802
333.365662 8.507813
335.107605 3400.634033
335.173676 20.66806
335.201752 28.735121
335.248566 16.503679
335.279602 6.142045
335.299286 37.487499
335.426239 74.184486
335.496918 30.8025
335.641724 5.5625
335.817291 4.5
335.853851 19.100809
335.908051 13.0625
336.064911 23.603451
342.967987 17.57143
349.733307 5.1875
349.804962 129.771393
349.858002 52.764839
349.889801 43.922489
349.935638 34.080139
349.998505 22.971149
350.053741 35.863369
350.104065 16.6875
350.124115 11.61343
350.143066 80.092117
350.218964 18.969761
350.260956 51.580631
350.602722 17.25
350.905151 48.012501
350.981995 38.112499
351.042572 30.06443
351.179474 19.501141
351.336853 21.32008
351.388123 11.06618
351.518555 12.01815
351.609955 12.00329
351.648834 7.722222
351.733826 11.09879
351.774658 11.9025
352.069489 37.845001
352.133942 24692.240234
352.213257 128.759903
352.262146 24.32
352.326141 31.674749
352.366913 202.982407
352.400848 174.237198
352.448792 65.501022
352.471283 17.575001
352.502777 95.701424
352.54184 60.6898
352.606995 155.962097
352.635925 44.860119
352.661133 109.897797
352.690399 82.906731
352.746063 106.319199
352.774414 79.475349
352.807922 10.375
352.840332 71.980011
352.948761 124.984703
353.023926 33.751301
353.064545 66.671829
353.304596 13.5744
353.478058 10.32143
353.526276 105.530098
353.62384 10.51042
353.801453 14.76042
353.903198 44.045609
353.92337 13.50417
353.991364 9.003676
354.119385 15.00625
354.303009 22.375
354.576904 42.42857
355.252777 20.15765
356.009705 15.34698
358.144867 11.2225
360.841553 13.50893
366.153381 98.827789
373.04306 5.5125
375.843567 20.05921
376.646515 17.921881
376.896362 6.526786
378.110962 763.971985
378.309113 43.51796
378.513641 20.55625
378.566681 8.360119
378.996674 3.025
379.155548 14.51372
395.127502 40.064259
395.213989 10.51389
413.18103 24.017241
491.226624 57.520828
491.81723 29.302231
580.309998 11.0194
867.316284 14.15625
