>compound MLS000090052-01!N-{4-[(4-aminophenyl)sulfonyl]phenyl}acetamide
>formula C14H14N2O3S
>ionization [M+H]+
>parentmass 291.081
#inchi InChI=1S/C14H14N2O3S/c1-10(17)16-12-4-8-14(9-5-12)20(18,19)13-6-2-11(15)3-7-13/h2-9H,15H2,1H3,(H,16,17)
#inchikey WDOCBIHNYYQINH
#Ion_Source LC-ESI
#Instrument qTof
#Compound_Source NIH Pharmacologically Active Library
#PI Dorrestein
#Data_Collector VP/LMS
#Scan -1
#Precursor_MZ 291.081
#ExactMass 290.073
#Charge 1
#CAS_Number N/A
#Pubmed_ID N/A
#Smiles CC(=O)Nc1ccc(cc1)S(=O)(=O)c2ccc(N)cc2
#INCHI_AUX N/A
#Library_Class 1
#SpectrumID CCMSLIB00000084790
#IonMode Positive
#UpdateWorkflowName UPDATE-SINGLE-ANNOTATED-GOLD
#LibraryQualityString Gold
#TaskID d252d724072548979f1f6f1ced849daf
##Scan# 1540
#SpectrumFile p3-A09_GA9_01_18230.mzXML
#LibraryName Pharm_Active_Library.mgf
#MQScore -1
#Organism Pharm_Active_Library
#TIC_Query 0
#RT_Query -1
#MZErrorPPM -1
#SharedPeaks 0
#MassDiff 0
#LibMZ -1
#SpecMZ 291.081
#SpecCharge 0
#internalFilename spec-00000.mgf

>collision 10
45.196487 176.0
46.806904 176.0
47.003197 92.0
48.610504 160.0
49.513882 228.0
52.002293 88.0
52.227879 216.0
55.842598 180.0
56.297153 92.0
56.84655 128.0
57.002724 220.0
58.152012 176.0
58.238556 172.0
61.476589 96.0
62.62579 132.0
64.006775 148.0
65.044373 184.0
65.79454 44.0
66.234398 124.0
66.557129 160.0
66.571739 152.0
68.692978 236.0
70.907806 236.0
76.295807 204.0
76.368843 160.0
77.877243 184.0
79.819489 148.0
81.056511 144.0
81.228622 256.0
81.616547 208.0
82.780418 112.0
82.956169 168.0
83.306396 196.0
83.959831 148.0
84.266495 128.0
85.603661 116.0
87.382454 256.0
87.471779 148.0
87.754951 52.0
88.031105 168.0
91.232384 192.0
91.866531 200.0
92.050194 332.0
93.030037 196.0
93.057991 984.0
93.200966 72.0
93.420135 100.0
93.529823 68.0
93.547897 112.0
93.58757 96.0
93.90554 156.0
94.067619 172.0
94.814209 148.0
95.988373 172.0
96.04493 236.0
98.989052 188.0
99.046486 220.0
102.094223 268.0
104.702881 216.0
105.903793 180.0
105.979591 32.0
106.066483 80.0
106.11586 156.0
107.393936 256.0
108.021866 184.0
108.045593 5980.0
108.121185 36.0
108.258163 48.0
108.496094 56.0
108.616364 68.0
109.027458 168.0
109.049583 440.0
109.672646 100.0
109.753944 80.0
109.789398 100.0
109.943771 120.0
115.378906 92.0
119.130928 120.0
121.118141 96.0
124.019981 172.0
125.687965 72.0
126.056396 52.0
130.065338 212.0
134.06015 1304.0
134.80632 44.0
135.065338 380.0
135.2388 52.0
139.075363 208.0
139.923965 56.0
140.016769 188.0
140.117081 120.0
140.949951 176.0
145.049988 164.0
150.057343 176.0
150.074417 180.0
151.052612 200.0
153.063736 180.0
154.472961 128.0
156.011993 1472.0
158.031036 204.0
159.060532 156.0
162.06665 152.0
168.082367 448.0
169.085999 124.0
171.050797 152.0
185.117386 192.0
192.086334 152.0
194.024857 184.0
198.021805 444.0
198.960052 140.0
199.027435 344.0
199.08078 132.0
208.656845 96.0
215.061737 208.0
270.034882 108.0
273.075195 96.0
286.810455 36.0
292.211761 136.0
320.476318 72.0
345.935455 152.0
429.218079 64.0
487.017426 20.0
615.494751 48.0
778.818298 196.0
818.382935 156.0
873.807495 188.0
943.257751 172.0
944.272766 192.0
977.705688 120.0
985.025391 156.0
989.459106 116.0
993.953003 44.0
994.706116 200.0
1014.412476 112.0
1029.248901 160.0
1035.073975 128.0
1096.877441 136.0
1125.371094 244.0
1128.698486 152.0
1144.399292 160.0
1148.624634 132.0
1159.550903 168.0
1166.542114 176.0
1174.788696 160.0
1192.007812 208.0
1210.210815 132.0
1222.288086 176.0
1225.06604 132.0
1249.934814 108.0
1254.554932 236.0
1255.372925 200.0
1277.435303 184.0
1279.26416 160.0
1292.102539 52.0
1294.142212 152.0
1295.689209 224.0
1310.179565 216.0
1329.51416 80.0
1336.468262 104.0
1363.782227 172.0
1366.046997 76.0
1367.540649 212.0
1382.270874 120.0
1404.775269 160.0
1405.021362 64.0
1413.755981 164.0
1443.364258 92.0
1468.676392 168.0
1478.891968 164.0
1489.258057 140.0
1492.34729 92.0
1504.628174 212.0
