>compound Bicalutamide
>formula C18H14F4N2O4S 
>ionization [M+H]+
>parentmass 431.068451
#inchi InChI=1S/C18H14F4N2O4S/c1-17(26,10-29(27,28)14-6-3-12(19)4-7-14)16(25)24-13-5-2-11(9-23)15(8-13)18(20,21)22/h2-8,26H,10H2,1H3,(H,24,25)
#inchikey LKJPYSCBVHEWIU
#Ion_Source LC-ESI
#Instrument qTof
#Compound_Source Isolated
#PI Sirenas
#Data_Collector Ed Esquenazi 
#Scan -1
#Precursor_MZ 431.07
#ExactMass 0.0
#Charge 1
#CAS_Number N/A
#Pubmed_ID N/A
#Smiles N/A
#INCHI_AUX N/A
#Library_Class 3
#SpectrumID CCMSLIB00000005727
#IonMode Positive
#UpdateWorkflowName UPDATE-SINGLE-ANNOTATED-BRONZE
#LibraryQualityString Bronze
#TaskID d19310cd93df49b68e9fcbec27720eb5
##Scan# 2
#SpectrumFile Bicalutamide.mgf
#LibraryName fda_library.mgf
#MQScore -1
#Organism fda_library
#TIC_Query 0
#RT_Query -1
#MZErrorPPM -1
#SharedPeaks 0
#MassDiff 0
#LibMZ -1
#SpecMZ 431.07
#SpecCharge 0
#internalFilename spec-00000.mgf

>collision 10
115.003616 38.55648
120.321419 8.491228
120.351982 14.68254
120.413025 8.109649
120.439751 9.670455
120.466476 6.422222
120.6269 2.678571
120.995499 3793.552979
121.04274 18.386511
121.074356 3.669444
121.112381 6.00463
121.127953 9.115741
121.142708 16.055161
121.158585 15.91838
121.20993 7.008333
121.300308 7.719017
121.334816 1.720238
121.361351 8.564103
121.394821 4.013889
121.407616 9.883117
121.427437 11.95833
121.468796 33.886799
121.494408 9.935897
121.764671 10.49662
121.93338 17.405001
121.997879 21.256201
122.417847 11.06349
122.691284 2.016667
123.03331 35.211239
123.07692 4.669872
134.411057 7.669445
134.653046 13.70519
139.407379 4.083333
142.211395 6.823718
142.995209 332.881104
143.559769 7.018518
158.013672 14.93561
158.169403 9.840517
158.208572 6.422222
158.243591 9.411765
158.462479 5.801667
158.620163 10.08654
158.792099 24.932871
158.900803 16.480391
158.962219 37.022141
158.990753 3156.589111
159.029556 11.33611
159.045273 12.61404
159.063004 7.138889
159.133087 6.189394
159.143372 18.670641
159.169357 14.20167
159.201996 18.5942
159.225388 10.33654
159.234268 9.010715
159.265457 4.59375
159.379074 6.125
159.417679 5.823718
159.435623 5.773809
159.55899 10.93452
159.709732 9.230042
159.735016 5.742284
159.919724 7.829301
160.100159 9.117248
160.633224 6.678764
160.911133 2.669444
161.003815 14.94092
161.053513 9.592949
161.290863 10.66667
167.018875 58.940109
167.041245 220.042297
167.139633 9.346154
168.841461 27.703899
177.000504 26.2192
184.76329 8.680555
185.604111 9.868333
185.912857 25.37262
185.948425 4.625
185.999588 14.2
186.040863 8.560484
186.102753 44.542519
186.125885 5.531863
186.155838 16.62405
186.213089 14.79167
186.331757 5.414216
186.563278 9.03125
186.852448 1.680555
186.996048 10.92004
187.047455 7272.174805
187.105896 51.96907
187.12822 10.66779
187.148346 14.34167
187.182526 49.968399
187.219345 16.787041
187.244888 22.03409
187.295746 14.72
187.310059 8.240196
187.336227 6.541667
187.35527 5.625
187.38121 56.26408
187.412064 11.78248
187.432266 13.84271
187.451584 6.019737
187.482422 16.152781
187.517715 28.22744
187.595825 20.003851
187.624603 12.67361
187.694443 12.40988
187.772659 20.85417
187.827927 12.61481
188.320953 20.174601
188.445816 14.77193
188.535675 9.694819
188.903687 9.960366
189.000549 15.04167
193.319565 10.70588
214.108078 8.680555
215.672424 7.012931
215.702942 7.001068
215.754105 43.003441
215.795258 10.00301
215.820465 7.74074
215.851135 16.67708
215.884094 20.764339
215.914154 15.05482
215.948257 3.013889
215.977844 6.446428
215.993286 17.111111
216.009476 10.75556
216.021088 12.89851
216.095322 21.276159
216.183487 5.121212
216.439346 7.666667
216.473862 6.685185
216.772125 6.335145
216.802856 27.58602
216.874573 8.333333
217.002716 11.77632
217.032593 11473.019531
217.09549 102.0532
217.117752 38.11285
217.143906 45.835979
217.16777 40.066669
217.182083 5.666667
217.204636 25.850849
217.219131 11.40789
217.243607 13.11538
217.260513 19.778509
217.284073 44.46516
217.322067 23.963539
217.341812 52.526299
217.363785 17.586809
217.420914 27.805559
217.453888 21.67079
217.484665 13.53472
217.500336 9.333333
217.514297 39.78326
217.534592 19.654221
217.559036 37.08466
217.605255 6.166667
217.643402 28.4065
217.692215 19.88542
217.722839 14.92607
217.757019 23.361111
217.88063 36.87426
217.907104 29.8519
218.512192 43.351189
218.547974 8.03858
218.830261 18.24575
219.177673 4.387821
219.211639 31.72917
219.427872 24.07184
219.907791 2.336539
219.990387 2.4
220.180176 8.777778
222.977859 7.734848
223.30513 10.69823
227.017212 33.066669
237.061325 43.445831
256.549438 21.42149
383.56311 5.736111
411.062836 13.91159
429.532928 3.893518
430.873352 11.39701
431.068451 196.9319
431.09726 7.012931
431.285065 4.34375
431.351379 27.739691
431.494598 7.710784
431.733124 10.66667
