>compound MLS001076316-01!TYRPHOSTIN AG 555
>formula C19H18N2O3
>ionization [M+H]+
>parentmass 323.1390188880905
#inchi InChI=1S/C19H18N2O3/c20-13-16(11-15-8-9-17(22)18(23)12-15)19(24)21-10-4-7-14-5-2-1-3-6-14/h1-3,5-6,8-9,11-12,22-23H,4,7,10H2,(H,21,24)/b16-11+
#inchikey GSQOBTOAOGXIFL
#Ion_Source LC-ESI
#Instrument qTof
#Compound_Source NIH Pharmacologically Active Library
#PI Dorrestein
#Data_Collector VP/LMS
#Scan -1
#Precursor_MZ 323.142
#ExactMass 322.132
#Charge 1
#CAS_Number N/A
#Pubmed_ID N/A
#Smiles Oc1ccc(/C=C(\C#N)/C(=O)NCCCc2ccccc2)cc1O
#INCHI_AUX N/A
#Library_Class 1
#SpectrumID CCMSLIB00000084839
#IonMode Positive
#UpdateWorkflowName UPDATE-SINGLE-ANNOTATED-GOLD
#LibraryQualityString Gold
#TaskID d252d724072548979f1f6f1ced849daf
##Scan# 2068
#SpectrumFile p3-B06_GB6_01_18239.mzXML
#LibraryName Pharm_Active_Library.mgf
#MQScore -1
#Organism Pharm_Active_Library
#TIC_Query 0
#RT_Query -1
#MZErrorPPM -1
#SharedPeaks 0
#MassDiff 0
#LibMZ -1
#SpecMZ 323.142
#SpecCharge 0
#internalFilename spec-00000.mgf

>collision 10
45.597462 76.0
45.632412 168.0
45.834312 100.0
46.625977 112.0
46.850494 60.0
47.978401 172.0
48.068054 172.0
48.188183 204.0
49.031883 128.0
49.178329 176.0
49.372536 228.0
49.564316 108.0
50.861832 128.0
51.481171 132.0
51.56403 164.0
51.601196 120.0
52.066906 192.0
52.738312 168.0
52.864136 192.0
52.93507 184.0
53.053879 192.0
53.065475 176.0
53.117687 180.0
53.257034 200.0
53.460575 156.0
53.81041 140.0
55.552948 140.0
55.616756 220.0
56.059963 168.0
56.716076 196.0
57.217819 140.0
57.243416 228.0
57.570652 140.0
57.688507 172.0
58.053402 152.0
59.320435 172.0
61.118191 220.0
61.595253 128.0
61.962883 120.0
62.204391 144.0
62.306465 184.0
62.657303 208.0
63.580746 220.0
63.615665 200.0
63.731606 100.0
64.669304 136.0
65.314331 268.0
66.27652 68.0
67.301254 140.0
68.09877 88.0
68.727631 96.0
68.859695 156.0
68.96048 68.0
69.250023 192.0
70.357491 164.0
71.001694 56.0
71.788742 52.0
72.439453 204.0
72.860168 112.0
73.768486 132.0
73.79071 120.0
74.969948 180.0
75.140656 136.0
76.05088 180.0
77.78067 140.0
78.64315 228.0
79.164696 160.0
79.457153 176.0
80.537704 168.0
81.219658 212.0
81.296806 144.0
82.265144 164.0
82.319305 108.0
83.772102 156.0
84.012733 236.0
84.202568 156.0
85.649712 120.0
85.992653 156.0
86.43618 216.0
86.812218 112.0
87.911636 108.0
88.236641 184.0
88.266563 212.0
89.006714 164.0
89.782005 48.0
90.348663 244.0
90.955055 96.0
91.03289 244.0
91.054527 1976.0
91.211487 108.0
91.43782 136.0
92.056961 348.0
92.128067 32.0
92.286697 192.0
92.303909 176.0
92.323029 196.0
92.462685 148.0
93.145256 188.0
93.585655 228.0
94.694099 164.0
95.072144 52.0
95.86557 120.0
96.019577 176.0
98.109825 128.0
98.184753 148.0
99.6595 244.0
100.653427 228.0
100.865196 168.0
101.283394 200.0
101.794807 168.0
101.98365 180.0
102.035919 200.0
102.444443 128.0
102.565346 232.0
104.049187 1784.0
104.078598 148.0
104.143585 52.0
104.210617 156.0
104.279709 180.0
104.381355 56.0
104.489159 140.0
104.682518 188.0
105.034668 304.0
105.05748 240.0
106.036789 132.0
106.299469 220.0
107.01683 132.0
107.097145 152.0
107.569336 176.0
107.961899 244.0
108.038429 156.0
108.357246 168.0
108.435989 100.0
110.202705 176.0
110.436836 136.0
110.650284 144.0
111.044228 284.0
111.453583 172.0
111.966858 200.0
112.211288 84.0
113.227669 76.0
113.734398 212.0
113.859665 128.0
113.972252 136.0
113.987122 180.0
114.035217 4872.0
114.101898 28.0
114.2146 148.0
114.240128 132.0
114.263527 56.0
114.378441 132.0
114.629753 124.0
114.680901 56.0
114.915474 168.0
115.036186 484.0
115.057755 216.0
115.301971 192.0
116.040375 192.0
116.169136 116.0
117.031425 336.0
117.066391 180.0
117.766296 108.0
118.042923 128.0
118.920311 40.0
119.086647 284.0
119.272179 32.0
119.502693 204.0
119.772636 140.0
120.003639 140.0
120.66954 172.0
123.045776 152.0
123.119598 144.0
123.267601 112.0
123.77858 156.0
124.062172 108.0
124.863739 136.0
125.835281 144.0
129.066269 136.0
130.051727 180.0
130.122101 140.0
130.426498 112.0
131.063705 152.0
131.200455 92.0
131.344116 156.0
131.531219 240.0
131.576874 196.0
131.791565 204.0
131.870239 188.0
132.01329 140.0
132.043671 3124.0
132.159683 56.0
132.326767 44.0
132.684158 48.0
132.752945 88.0
133.028473 3780.0
133.198196 36.0
133.338348 44.0
133.46019 48.0
133.971115 156.0
134.033783 364.0
134.063995 168.0
134.111679 160.0
135.048065 464.0
135.734573 44.0
136.110992 1076.0
136.856857 116.0
137.121048 164.0
138.054764 304.0
139.176315 148.0
140.152435 168.0
140.244339 204.0
141.654984 160.0
141.91568 212.0
141.979416 164.0
142.030151 4084.0
142.435394 168.0
142.454407 104.0
142.532806 76.0
142.845139 192.0
142.979858 40.0
143.030273 708.0
143.396637 220.0
144.047272 188.0
144.160324 144.0
144.241577 76.0
145.059601 152.0
145.340836 136.0
145.6241 244.0
145.799484 152.0
146.00383 100.0
146.398499 100.0
146.48761 156.0
148.636917 148.0
149.606659 52.0
149.898926 68.0
150.015915 212.0
150.053406 200.0
150.880112 176.0
151.043945 176.0
151.859573 208.0
151.90863 80.0
152.041122 168.0
154.527405 112.0
154.844254 140.0
155.93837 188.0
156.055206 180.0
156.503052 144.0
157.640488 184.0
157.945496 120.0
158.000534 164.0
159.017868 96.0
159.039108 148.0
159.063049 140.0
159.487549 132.0
159.771698 220.0
160.039566 3580.0
160.083801 204.0
160.562607 40.0
160.58783 100.0
161.022598 1664.0
161.041458 684.0
161.206345 72.0
161.347885 52.0
161.375702 96.0
161.896957 44.0
162.026138 384.0
162.054718 784.0
162.977554 116.0
163.04303 304.0
163.057648 116.0
163.062042 204.0
163.262253 104.0
166.058762 60.0
167.941467 180.0
169.891846 56.0
169.948914 96.0
170.023544 4532.0
170.102036 36.0
170.218857 56.0
170.247421 64.0
170.543594 76.0
170.702179 104.0
171.025131 592.0
171.207031 144.0
172.354782 80.0
172.404434 72.0
173.071472 92.0
173.207642 72.0
174.364716 84.0
177.132492 40.0
178.047531 152.0
178.504593 52.0
184.386368 144.0
185.198029 64.0
186.592819 52.0
187.1315 296.0
187.346649 156.0
187.540115 116.0
187.946457 260.0
188.034882 7328.0
188.148422 32.0
188.170258 96.0
188.200287 72.0
188.233047 48.0
188.289795 164.0
188.317719 64.0
188.500748 52.0
188.899918 96.0
189.037216 644.0
189.29129 28.0
189.513153 32.0
190.00116 96.0
190.041183 116.0
190.297562 140.0
190.995575 156.0
191.777542 32.0
191.871262 64.0
193.086197 160.0
195.984268 164.0
201.000595 160.0
201.845169 76.0
206.046021 176.0
206.068878 108.0
216.003281 68.0
221.000946 128.0
225.105865 128.0
233.9767 168.0
234.710968 56.0
245.117737 88.0
253.631683 36.0
256.12915 156.0
281.182465 212.0
283.084656 96.0
295.137939 488.0
315.334442 40.0
322.621246 72.0
338.923248 40.0
353.812775 56.0
380.480408 52.0
402.16394 40.0
434.31311 136.0
478.229126 88.0
526.659546 100.0
615.410828 116.0
750.803467 152.0
779.651733 136.0
873.048767 68.0
897.725708 172.0
926.117188 192.0
931.400208 88.0
941.681458 184.0
954.876831 120.0
974.124451 144.0
1000.747681 180.0
1013.02478 196.0
1028.712646 160.0
1043.787842 212.0
1055.174316 212.0
1059.879639 212.0
1069.230713 164.0
1071.750732 100.0
1089.198486 152.0
1098.341309 124.0
1108.694946 132.0
1117.885742 180.0
1136.6427 192.0
1142.42749 152.0
1142.508179 216.0
1144.204102 176.0
1156.618286 132.0
1157.877686 208.0
1158.548218 156.0
1178.420654 236.0
1179.001465 168.0
1184.091431 248.0
1187.662964 196.0
1195.473755 104.0
1201.136963 96.0
1208.010132 48.0
1216.491333 192.0
1216.568359 204.0
1221.745605 56.0
1225.602661 140.0
1232.510376 144.0
1235.880493 52.0
1243.890869 228.0
1251.131348 132.0
1261.162109 188.0
1263.339966 40.0
1285.907349 136.0
1299.704346 228.0
1306.055054 80.0
1311.217285 156.0
1322.303223 204.0
1324.156738 48.0
1326.576782 136.0
1329.739258 156.0
1333.305176 208.0
1334.649902 244.0
1334.984375 168.0
1340.341919 280.0
1342.973633 196.0
1344.666382 152.0
1347.967163 176.0
1350.63562 176.0
1354.310059 160.0
1362.180542 108.0
1363.730835 88.0
1364.421875 32.0
1366.069092 180.0
1374.246704 200.0
1375.30188 164.0
1377.672241 252.0
1377.908691 44.0
1378.558838 100.0
1380.125854 212.0
1380.680542 108.0
1381.161255 68.0
1397.377686 176.0
1397.675293 172.0
1401.010742 120.0
1405.193115 212.0
1409.598389 180.0
1409.882324 128.0
1424.77063 192.0
1433.581421 196.0
1438.076172 180.0
1442.479736 208.0
1457.485596 160.0
1464.583374 156.0
1469.256226 156.0
1469.691162 196.0
1471.04187 208.0
1473.9823 176.0
1476.466797 180.0
1482.936035 108.0
1484.277588 120.0
1485.098145 244.0
1493.200928 132.0
1496.563721 104.0
1499.668213 48.0
1499.914917 68.0
1502.475098 180.0
1502.945679 180.0
