>compound QuetiapineFumarate
>formula C21H25N3O2S 
>ionization [M+H]+
>parentmass 384.174438
#inchi InChI=1S/C21H25N3O2S/c25-14-16-26-15-13-23-9-11-24(12-10-23)21-17-5-1-3-7-19(17)27-20-8-4-2-6-18(20)22-21/h1-8,25H,9-16H2
#inchikey URKOMYMAXPYINW
#Ion_Source LC-ESI
#Instrument qTof
#Compound_Source Isolated
#PI Sirenas
#Data_Collector Ed Esquenazi 
#Scan -1
#Precursor_MZ 384.174
#ExactMass 0.0
#Charge 1
#CAS_Number N/A
#Pubmed_ID N/A
#Smiles N/A
#INCHI_AUX N/A
#Library_Class 3
#SpectrumID CCMSLIB00000006402
#IonMode Positive
#UpdateWorkflowName UPDATE-SINGLE-ANNOTATED-BRONZE
#LibraryQualityString Bronze
#TaskID d19310cd93df49b68e9fcbec27720eb5
##Scan# 2
#SpectrumFile QuetiapineFumarate.mgf
#LibraryName fda_library.mgf
#MQScore -1
#Organism fda_library
#TIC_Query 0
#RT_Query -1
#MZErrorPPM -1
#SharedPeaks 0
#MassDiff 0
#LibMZ -1
#SpecMZ 384.174
#SpecCharge 0
#internalFilename spec-00000.mgf

>collision 10
100.07518 23.73912
106.78566 10.15858
111.090569 94.02964
112.028847 29.004141
114.091759 289.547394
116.070137 82.081383
116.223701 20.24802
132.101257 1523.645996
132.149246 13.89231
132.333237 15.16056
132.385712 11.298
132.402222 17.22315
133.413086 20.207029
134.117142 76.516579
138.042007 17.342569
138.08847 20.401091
139.052063 218.088593
140.105606 66.473068
142.082535 34.44804
144.099625 41.45668
145.739975 6.600385
147.112411 18.693081
151.053024 132.0896
156.106293 20.49412
156.132889 9.625
156.594193 17.728571
157.098526 42.435219
157.132385 62.820999
157.151886 19.636761
157.20018 16.71142
157.314316 11.53245
157.330322 22.200001
157.378769 20.83333
157.402649 26.36097
157.417145 32.14101
157.500656 12.6
157.819534 11.46926
158.117325 20679.890625
158.25766 14.51468
158.284805 43.067589
158.317261 19.572439
158.354095 46.799011
158.370361 32.74028
158.409744 38.652458
158.43898 50.488338
158.45639 35.531311
158.484253 12.23077
158.519608 15.2244
158.550262 56.910198
158.612778 21.625
158.655655 21.91486
158.686249 10.70658
158.705185 14.91115
158.716751 14.09534
158.758423 19.983509
158.802155 13.48167
158.835464 13.20549
159.077057 14.5329
159.168716 13.00571
159.386658 14.112
159.670059 11.49138
164.04747 22.99225
165.071442 22.452629
166.062302 12.41408
169.917252 13.415
173.126923 223.5383
177.056213 99.391037
177.23761 13.29
178.063766 195.313995
180.07814 35.59066
183.024933 357.377899
193.070251 49.361061
193.093124 28.66431
194.090958 50.424179
194.816162 12.65806
196.492523 17.00806
201.042206 19.021339
201.597458 14.33581
203.060196 12.507
204.080841 30.526581
205.067215 9.800373
206.092743 20.55238
207.093246 21.764059
207.997391 11.68801
208.018967 36.757549
208.95755 10.40167
209.027664 337.41449
209.108078 14.84024
209.353027 10.48176
210.037048 4525.315918
210.098251 31.736111
210.159241 10.36056
210.197021 10.82826
210.22525 17.432051
210.271011 10.5125
210.422989 22.009001
210.48201 17.922461
210.528336 11.39651
210.889969 10.52071
212.051834 315.926514
212.405197 10.01552
214.062012 17.78581
216.061142 10.6069
218.083878 34.11837
219.07373 51.036819
219.091568 251.392197
219.788162 14.64392
219.862808 18.2061
219.886292 16.252081
219.977081 23.866671
220.013855 13.47656
220.049591 9.957143
220.114258 13.80833
220.24408 15.25633
220.822342 13.24447
221.059753 39.55513
221.106934 11527.389648
221.171539 103.199501
221.222656 28.65704
221.254074 21.812349
221.267334 14.53819
221.302368 79.486183
221.358322 37.659889
221.383484 17.727039
221.488953 10.53136
221.511856 15.54369
221.552322 30.380131
221.587845 19.863939
221.599487 19.055901
221.732269 21.800529
221.878235 29.252371
221.919144 14.32029
221.983994 15.58421
222.852753 12.27826
223.04361 23.65217
223.175461 11.00992
224.013489 12.42402
224.034927 18.65
226.069031 120.869698
227.06308 366.553192
227.122025 12.60625
235.346313 52.950001
236.044662 25.61484
236.480606 9.417308
238.063339 26.09613
240.065643 17.987499
243.095551 24.81189
245.105942 36.63784
245.680344 12.98409
246.116165 37.439491
247.054611 15.08649
247.12265 1737.734009
247.383087 13.06808
247.511322 15.57609
247.564102 31.837049
247.615463 20.424999
248.425034 13.87305
249.957779 18.196051
250.524872 13.51351
250.870834 12.98074
251.064194 404.410889
251.134628 65.680977
251.375885 9.247093
251.449158 39.022221
251.474411 26.583509
251.487671 2.906579
251.508087 118.176804
251.551056 134.678894
251.597504 121.255302
251.639236 148.571198
251.663452 113.041702
251.681107 78.666283
251.705109 79.851173
251.720383 47.81966
251.742889 210.402496
251.770813 229.470398
251.791168 162.641693
251.811417 196.967407
251.859467 121.877701
251.91272 107.526802
251.949951 75.204727
251.982941 254.999802
252.030914 40.0014
252.094284 76.727219
252.195557 70.079727
252.23378 95.194603
252.250885 5.980172
252.288437 17.080999
252.301392 12.83682
252.322052 83.982224
252.374084 51.834751
252.432236 77.600311
252.459106 79.653038
252.527466 35.770401
252.64476 16.245251
252.723907 23.222731
252.837555 24.575809
252.881714 156.132095
253.054291 15.4277
253.080032 222109.09375
253.574738 172.554306
253.597 118.846703
253.659546 189.368896
253.689865 45.642139
253.713943 60.221901
253.755341 43.088261
253.826523 120.3265
253.844986 47.60006
253.898087 4.325
253.911713 131.6306
253.956345 56.640362
253.970245 65.877907
254.031036 93.618446
254.152924 173.884293
254.20372 93.723999
254.258896 77.530937
254.557388 62.083851
254.640961 16.08036
254.775024 24.47986
254.789047 20.26759
254.934601 10.62857
255.087753 15.22437
255.17662 20.65601
255.232895 9.852648
255.382416 18.84
255.442108 12.05213
255.486328 20.232651
255.505539 13.05
255.531525 33.730801
255.637726 15.25307
255.845261 17.883329
256.055542 16.49
256.256012 19.069389
256.502167 10.25333
256.546661 14.44045
256.66684 14.94569
257.052643 19.02593
257.152466 12.14795
257.738251 18.107519
259.153198 20.8127
262.131775 19.007179
267.094452 47.614071
267.519165 9.657076
268.27655 11.21047
272.334137 45.38755
276.980316 55.572182
277.245056 9.406061
277.317444 10.15
277.339264 14.03
277.37973 46.231831
277.422333 17.24456
277.455475 16.26429
277.50943 30.691521
277.564178 37.147121
277.588562 27.143801
277.60556 14.40441
277.623444 40.197781
277.638611 10.75
277.659271 19.25606
277.701843 20.31912
277.737732 16.0
277.775818 12.90417
277.8284 13.26722
278.242401 14.20033
278.306488 15.05714
278.423492 9.532447
278.508301 17.10833
278.556305 17.601891
279.013702 20.656
279.034241 116.295502
279.095123 30820.869141
279.128448 6.805769
279.334381 7.034574
279.411255 28.258341
279.446625 17.60202
279.47583 58.84626
279.571808 57.04192
279.591003 20.20343
279.613464 11.21216
279.628723 19.77309
279.667511 47.349461
279.721436 9.235851
279.738434 16.88427
279.787537 62.625622
279.811554 11.40151
279.871704 29.378851
279.900818 20.72788
279.928345 9.85405
279.955872 29.731939
279.996216 17.30743
280.012634 29.171379
280.049713 15.79418
280.262909 16.756519
280.544434 14.21861
280.800659 28.679411
281.365997 17.616329
282.588562 20.53303
283.086792 16.612749
283.436768 3.203333
285.125183 15.13065
289.365051 11.26429
291.116028 42.0448
296.121429 18.625
296.253479 22.234779
315.118622 9.216892
322.133179 261.130615
323.917145 14.20424
338.075348 19.21154
340.716827 18.02146
341.123749 54.651211
352.198334 40.762138
355.133667 46.20425
367.13678 16.306641
378.666809 13.06667
381.591431 50.042931
381.637634 18.207689
381.691437 148.164398
381.731781 75.355377
381.7883 117.964401
381.821808 47.674999
381.842163 142.436096
381.876434 87.767998
381.903503 131.747498
381.956604 159.770798
381.993988 47.508461
382.017792 39.13913
382.041931 98.409248
382.10437 235.666702
382.159363 335.563202
382.281372 75.786552
382.406891 36.97374
382.475739 76.171059
382.606781 16.694811
382.633179 22.699181
382.768036 22.73382
382.808319 84.120743
383.069611 15.45625
383.525787 60.129398
383.733795 15.75848
383.862885 20.21324
383.921844 63.175331
383.98407 76.008171
384.002441 216.769196
384.085693 92.247017
384.174438 113972.101562
384.316681 2.475
384.340454 4.72803
384.606476 3.205556
384.782623 54.938862
384.858063 154.432693
384.891724 150.011597
384.943665 117.767998
385.085419 236.496704
385.24408 45.477798
385.282898 110.471802
385.32193 94.505333
385.354218 13.69921
385.555115 56.78558
385.672943 69.7276
385.727844 57.576839
385.803558 67.724663
385.967529 29.547609
386.002686 28.03249
386.035797 12.28269
386.132294 19.167999
386.197479 11.20714
386.353912 21.245001
386.477905 10.70323
386.532532 11.60192
386.642181 35.691002
386.936768 13.21059
387.054871 11.02308
387.360504 22.515739
387.832794 9.96875
388.392365 10.02976
388.820496 9.245
389.582916 2.938889
398.464264 9.497581
402.080872 10.0025
430.542206 13.60714
1316.554688 36.36805
