>compound Lansoprazole
>formula C16H14F3N3O2S 
>ionization [M+H]+
>parentmass 370.084
#inchi InChI=1S/C16H14F3N3O2S/c1-10-13(20-7-6-14(10)24-9-16(17,18)19)8-25(23)15-21-11-4-2-3-5-12(11)22-15/h2-7H,8-9H2,1H3,(H,21,22)
#inchikey MJIHNNLFOKEZEW
#Ion_Source LC-ESI
#Instrument qTof
#Compound_Source Isolated
#PI Sirenas
#Data_Collector Ed Esquenazi 
#Scan -1
#Precursor_MZ 370.084
#ExactMass 0.0
#Charge 1
#CAS_Number N/A
#Pubmed_ID N/A
#Smiles N/A
#INCHI_AUX N/A
#Library_Class 3
#SpectrumID CCMSLIB00000006483
#IonMode Positive
#UpdateWorkflowName UPDATE-SINGLE-ANNOTATED-BRONZE
#LibraryQualityString Bronze
#TaskID d19310cd93df49b68e9fcbec27720eb5
##Scan# 3
#SpectrumFile Lansoprazole.mgf
#LibraryName fda_library.mgf
#MQScore -1
#Organism fda_library
#TIC_Query 0
#RT_Query -1
#MZErrorPPM -1
#SharedPeaks 0
#MassDiff 0
#LibMZ -1
#SpecMZ 370.084
#SpecCharge 0
#internalFilename spec-00000.mgf

>collision 10
106.065224 227.524796
106.093361 1.777778
106.659721 15.65278
107.072922 1262.015015
107.130875 3.367424
107.153336 8.633333
107.206017 6.080128
107.256966 10.66774
107.289734 5.633333
107.397522 5.672222
107.595901 4.37037
108.058304 9.561992
108.388336 2.680556
111.020645 19.372549
118.54274 33.921921
119.060127 1194.182007
119.118866 2.354167
119.220795 11.09799
119.271988 13.84052
119.323997 12.74423
119.352104 6.25926
119.640068 4.59375
119.86805 5.333333
120.043709 16.04167
120.996368 29.62888
122.05999 178.575302
122.237312 15.01828
122.433548 6.049603
123.014122 31.601851
124.020927 37.029339
134.006912 52.497749
134.956543 70.77491
135.02504 2.333333
135.340118 4.094697
135.381882 5.265351
135.505844 3.185606
135.640198 10.76179
136.075378 1774.251953
136.131363 7.721491
136.146011 16.7631
136.208023 2.666667
136.254715 5.583333
136.37915 15.54825
136.419235 7.710784
136.451782 7.729167
136.468765 23.28516
136.484253 6.160257
136.610275 6.022223
137.06308 89.692047
137.870422 13.92754
137.910446 7.004386
149.01532 135.700394
149.10675 8.337121
150.983093 23.639059
151.006744 394.066589
151.054184 2.722222
151.118759 4.125
151.255219 7.001263
151.336517 10.72803
151.602066 4.363636
151.623993 4.927083
152.947586 26.32692
153.021759 52.01852
165.056091 24.952921
166.1297 8.017858
176.03006 10.80474
176.702286 9.916667
185.458389 7.656609
189.100601 3.823718
190.048828 14.76587
203.814377 6.001984
203.942581 7.358334
204.061569 599.007874
204.116898 2.347222
204.13533 2.741667
204.206879 13.04348
204.231689 6.402778
204.322693 5.640152
205.171112 7.802778
208.885681 5.386905
210.078812 61.334389
220.060059 70.113564
220.176727 2.0
232.469467 2.020833
232.697601 13.69167
232.873581 4.708333
233.094742 7.041667
233.967682 14.6832
234.019623 1614.321045
234.061829 3.1875
234.079437 3.347222
234.116608 1.666667
234.323746 25.206051
234.356293 7.364899
234.398895 7.666667
234.414886 9.668011
234.596954 13.07456
234.787872 5.333333
235.054703 4.337963
235.105164 11.41667
235.153854 24.789141
235.267731 11.27866
235.353302 6.201666
235.405197 12.81548
236.078674 62.241131
251.500183 18.889549
252.028412 118.327003
252.078186 84.030403
349.947479 6.399193
350.80777 13.41223
795.449341 47.015579
1279.807129 10.97283
