>compound cyclo(L-Leu-L-Pro)
>formula C11H18N2O2 
>ionization [M+H]+
>parentmass 211.143845
#inchi InChI=1S/C11H18N2O2/c1-7(2)6-8-11(15)13-5-3-4-9(13)10(14)12-8/h7-9H,3-6H2,1-2H3,(H,12,14)
#inchikey SZJNCZMRZAUNQT
#Ion_Source DI-ESI
#Instrument qTof
#Compound_Source Isolated
#PI Keyzers
#Data_Collector R Keyzers
#Scan -1
#Precursor_MZ 211.145
#ExactMass 210.137
#Charge 1
#CAS_Number 2873-36-1
#Pubmed_ID N/A
#Smiles N/A
#INCHI_AUX N/A
#Library_Class 3
#SpectrumID CCMSLIB00000007050
#IonMode Positive
#UpdateWorkflowName UPDATE-SINGLE-ANNOTATED-BRONZE
#LibraryQualityString Bronze
#TaskID 76b66bf1ccd04cec9993212b36387ea3
##Scan# 5
#SpectrumFile CDB02_35I_pos_MSMS_003_2.mgf
#LibraryName gnps_library.mgf
#MQScore -1
#Organism test_rob_keyzers
#TIC_Query 0
#RT_Query -1
#MZErrorPPM -1
#SharedPeaks 0
#MassDiff 0
#LibMZ -1
#SpecMZ 211.145
#SpecCharge 0
#internalFilename spec-00000.mgf

>collision 10
22.244949 27.777781
22.694298 21.20833
24.599976 24.875
26.832479 20.035721
27.273087 12.14286
28.014879 25.111111
29.960485 19.778851
30.027941 18.008329
30.793837 15.08333
32.402657 67.556038
35.290764 12.8
35.968681 11.16071
39.591473 23.0
41.864479 29.008329
41.988384 29.322371
43.056591 101.461098
43.655144 23.007351
44.011673 14.75
44.05003 172.769196
44.671371 12.75
45.034214 1316.779053
45.095463 16.5625
47.675362 11.05
47.763481 10.45
48.273964 29.375
50.132214 32.083328
50.51783 42.694439
51.009487 16.10227
52.354679 27.05921
53.449074 47.1875
53.724022 13.04167
55.683952 60.56403
56.456177 21.53125
57.307182 18.125
58.030785 136.716293
59.04932 430.645599
59.121021 15.02273
62.986961 16.008329
66.274109 13.2
67.05191 34.020828
68.049438 120.114304
69.071365 211.093002
69.128677 10.45
70.065384 9995.220703
70.141617 152.878204
70.1623 49.25
70.305931 18.53289
70.503777 33.164471
70.909462 15.92045
70.953926 12.16071
71.032158 17.049999
71.068443 183.173904
71.203728 29.444441
71.293861 15.16071
71.43483 24.375
71.852425 14.04167
71.933762 11.01389
72.043564 1167.609009
72.304558 55.333328
72.511269 21.027781
72.560394 11.01136
73.279282 22.066179
73.947578 31.595591
74.122864 15.25
74.882339 44.01786
77.040703 161.958298
78.768143 23.360291
79.633461 10.125
80.375969 14.01389
80.619156 12.28409
80.697922 10.5625
81.832664 18.0625
81.877808 11.5
83.755898 12.16071
86.097549 1108.708984
86.183647 20.0
86.324203 15.25
87.039825 42.57143
87.1007 44.00658
87.124908 15.8
87.252907 20.799999
89.060417 657.648926
91.048866 68.044998
92.047585 153.587204
94.020859 72.769234
94.063316 504.299988
94.276863 32.272732
94.625145 11.68056
96.580849 73.36364
96.650787 143.181198
98.061554 592.982483
98.962784 50.048908
99.083328 16.10227
100.985992 13.16346
103.571571 16.674999
105.043854 68.41346
105.065842 97.328949
106.624008 11.125
107.082825 117.050003
108.075333 64.800003
109.07209 15.32143
109.286011 18.32143
109.661354 46.5
110.066612 14.77885
111.05555 62.640629
111.092018 67.612503
111.4786 23.28125
112.072739 61.53125
114.091331 1323.678955
114.346519 29.471149
114.980507 149.682404
115.01387 17.240391
115.098518 76.375
115.431107 13.04167
115.527977 18.1
116.966698 33.889709
117.036774 32.066181
117.65493 10.225
118.752411 17.889709
119.057259 206.013901
119.080063 82.315788
119.113167 26.5625
119.447655 19.01786
119.64444 21.066179
120.090034 27.57143
122.069588 31.004999
122.462715 65.25
122.910675 29.2663
124.093071 65.625
125.076599 43.25
125.540871 39.720242
125.662354 19.408331
126.432289 40.142239
127.087204 96.846153
127.117996 17.025
127.786842 20.111111
128.082123 57.799999
130.41124 12.00961
131.449387 13.125
133.090805 95.160713
135.110245 89.002548
135.646133 14.01389
136.048553 125.375
137.981155 13.625
138.126541 1542.446045
138.213333 13.34722
138.236908 25.225
140.329559 15.0
141.772339 10.01389
142.414413 15.0
143.21933 23.408331
150.069046 55.13306
150.106812 41.55682
150.500076 38.76923
151.05307 115.050003
151.101608 82.125
151.924133 10.75
152.032074 59.840912
153.142792 35.041672
154.070969 329.349213
154.566132 10.0
155.083511 161.7267
155.146469 62.875
155.657043 10.0625
155.950867 18.14286
157.413986 27.14286
161.015762 13.5625
161.721527 16.125
163.887436 24.25
165.136566 61.263161
166.060242 10.25
167.077499 13.00961
167.149582 41.674999
168.078491 65.680557
168.158905 28.0
168.840851 11.25
169.072739 73.409088
171.106903 38.027779
174.415512 18.08654
179.018265 18.0
183.146652 706.377319
184.112 81.884804
184.768204 14.0625
192.112381 54.058819
193.136215 93.840912
194.120087 296.013885
195.100845 144.851395
196.08371 49.400002
196.124664 18.16667
198.114746 84.210533
202.579712 14.44643
203.305862 23.33333
211.143845 1973.232056
211.277176 24.32143
211.367432 14.08654
211.553192 33.78241
211.617889 23.08654
211.684128 12.16071
211.730942 14.16346
212.079483 62.080132
212.145554 302.351807
212.406372 14.01786
212.49736 23.57143
212.590607 10.08333
213.109512 31.04167
213.18158 14.0625
213.378159 37.875
213.461044 13.16346
216.203445 19.240391
219.187546 38.728451
224.097977 12.04167
230.532593 14.16071
240.693954 14.20833
250.489517 15.675
251.610703 12.01136
257.456482 16.049999
263.102356 28.89286
270.719299 15.06618
276.031982 19.125
278.819458 10.44643
283.588165 10.01136
284.422546 16.08654
292.575256 18.674999
292.756927 11.44643
294.291107 12.2
297.339569 11.16071
308.886475 11.16071
315.300659 24.125
315.438293 13.01389
316.028137 19.799999
319.832733 16.0
328.505188 22.32143
336.670624 22.680559
341.987518 19.799999
350.132446 12.44643
353.336212 16.200001
353.420776 34.0
355.428101 12.47115
358.725159 15.075
363.090454 12.125
380.609131 33.333328
385.163605 16.78125
385.808167 35.605
389.16214 17.01136
390.777924 10.03571
391.881042 11.34722
400.551483 13.01136
411.609833 11.5625
415.655731 10.03571
417.892059 10.34722
420.177063 73.066673
429.307648 27.05921
434.806793 10.33333
442.782074 30.595591
449.262878 14.0
461.976929 13.32143
467.750824 24.01136
477.006683 20.375
491.021851 16.125
491.394958 36.96196
507.947479 10.0625
508.382324 25.654409
521.998779 21.28125
525.876892 15.0
530.355469 15.5
537.353088 22.075001
539.362061 15.44643
581.424255 14.875
585.006042 29.00658
587.934021 13.125
591.993408 15.0
601.486328 21.53125
606.247559 42.034088
612.378479 28.48214
612.428345 11.33333
613.435974 32.694439
614.844299 41.038792
619.904541 17.16346
620.872864 15.0
632.596436 18.035721
632.640442 13.0
635.354431 34.075001
644.992188 15.68056
658.520264 19.125
659.902466 32.444439
668.43457 19.25
671.074402 19.625
694.040283 30.889709
696.830261 20.450001
697.074097 12.33333
703.59845 12.8
719.954529 21.55682
725.273132 16.16667
731.450623 11.875
731.946777 23.6
741.890137 18.28409
745.815002 16.360291
772.103516 21.450001
776.056519 10.92045
792.736267 24.694441
798.549561 11.08654
826.860474 38.26667
834.047119 18.0
864.005798 16.01136
882.061951 78.387817
893.194031 11.875
895.653076 26.408331
898.832397 36.75
903.547974 31.4
906.667297 16.200001
915.532349 13.10227
927.45697 13.00961
930.922119 11.68056
941.620422 18.55682
954.580444 24.0
958.232788 14.04167
964.320618 16.240391
985.813477 13.08333
998.054993 22.75
998.927856 38.625
999.212036 12.025
