>compound MLS001146605-01!N-[(E)-3-(3,4-dihydroxyphenyl)prop-2-enoyl]-2-hydroxybenzamide
>formula C16H13NO5
>ionization [M+H]+
>parentmass 300.087
#inchi InChI=1S/C16H13NO5/c18-12-4-2-1-3-11(12)16(22)17-15(21)8-6-10-5-7-13(19)14(20)9-10/h1-9,18-20H,(H,17,21,22)/b8-6+
#inchikey FONHTANVJZLRTJ
#Ion_Source LC-ESI
#Instrument qTof
#Compound_Source NIH Natural Product Library
#PI Dorrestein
#Data_Collector VVP/LMS
#Scan -1
#Precursor_MZ 300.087
#ExactMass 299.079
#Charge 1
#CAS_Number N/A
#Pubmed_ID N/A
#Smiles Oc1ccc(/C=C/C(=O)NC(=O)c2ccccc2O)cc1O
#INCHI_AUX N/A
#Library_Class 1
#SpectrumID CCMSLIB00000079488
#IonMode Positive
#UpdateWorkflowName UPDATE-SINGLE-ANNOTATED-GOLD
#LibraryQualityString Gold
#TaskID b1d8e8f6646f4e71acdff9ca3d919d08
##Scan# 1789
#SpectrumFile p1-A07_GA7_01_17880.mzXML
#LibraryName NIH_Natural_Products_Library.mgf
#MQScore -1
#Organism NIH_Natural_Products_Library
#TIC_Query 0
#RT_Query -1
#MZErrorPPM -1
#SharedPeaks 0
#MassDiff 0
#LibMZ -1
#SpecMZ 300.087
#SpecCharge 0
#internalFilename spec-00000.mgf

>collision 10
95.052162 248.0
95.6297 212.0
95.670204 148.0
96.298065 208.0
96.491516 180.0
96.72039 160.0
97.212311 40.0
97.640564 204.0
101.567314 136.0
101.73185 156.0
101.930687 40.0
101.972885 180.0
102.851036 112.0
103.057022 180.0
103.540474 172.0
104.73674 144.0
107.049271 488.0
107.886635 212.0
108.184525 196.0
109.205414 212.0
109.311508 224.0
109.488449 136.0
109.742668 96.0
110.120369 120.0
110.626373 200.0
110.687309 192.0
111.4674 212.0
113.080666 196.0
113.731339 132.0
115.091667 216.0
115.168549 192.0
115.487015 172.0
115.604675 132.0
115.793068 168.0
115.9366 136.0
116.018051 184.0
116.380623 128.0
116.573944 192.0
116.629822 116.0
116.871407 208.0
117.033493 4768.0
117.107468 40.0
117.18502 68.0
117.8517 244.0
118.037872 392.0
118.541946 76.0
118.752228 124.0
118.830322 100.0
119.052574 276.0
120.044022 208.0
120.439041 176.0
120.900345 208.0
120.996651 92.0
121.029503 2052.0
121.975029 60.0
122.033485 196.0
124.096535 148.0
124.245125 156.0
125.858704 148.0
126.762367 172.0
127.094231 108.0
127.170525 184.0
128.441772 76.0
128.58844 152.0
128.86618 208.0
128.98143 120.0
129.044724 152.0
129.282227 164.0
129.533539 132.0
129.696686 212.0
129.900757 84.0
130.302567 152.0
132.252274 120.0
133.024719 144.0
134.564835 296.0
134.711594 168.0
134.816605 128.0
134.996918 216.0
135.043533 8992.0
135.177353 80.0
135.300018 60.0
135.369476 44.0
135.404221 140.0
135.608093 72.0
135.663727 84.0
135.765747 92.0
135.9142 80.0
135.98613 156.0
136.047089 1052.0
136.774063 64.0
136.960327 120.0
136.990616 144.0
137.023224 132.0
137.058182 116.0
137.079147 160.0
137.16304 100.0
137.198013 176.0
137.235321 176.0
138.052383 404.0
139.055237 160.0
140.27597 164.0
140.896606 76.0
141.468903 204.0
143.07843 144.0
143.145096 72.0
143.447662 80.0
143.977341 132.0
144.838348 132.0
145.028351 3660.0
145.243423 68.0
145.28421 68.0
146.031235 356.0
146.049164 192.0
146.059006 88.0
146.065918 152.0
146.173157 80.0
146.9104 36.0
147.555206 168.0
147.930176 180.0
148.308044 72.0
149.778046 136.0
150.153381 56.0
152.875107 84.0
154.300766 212.0
155.815018 164.0
157.561417 60.0
159.888306 128.0
161.589417 120.0
162.374237 180.0
162.800583 132.0
162.818359 136.0
162.866623 60.0
162.887268 156.0
162.965698 168.0
163.007782 136.0
163.03891 10892.0
163.129242 80.0
163.171555 64.0
163.252914 36.0
163.474228 32.0
163.504776 100.0
163.601486 76.0
163.728806 84.0
163.985458 124.0
164.04274 1416.0
164.437531 68.0
164.846146 84.0
164.927917 28.0
164.950928 84.0
164.976486 160.0
165.022507 176.0
165.047836 176.0
165.321777 164.0
176.001343 108.0
180.066101 212.0
180.946716 212.0
182.148102 112.0
186.509247 124.0
194.275131 40.0
208.950806 132.0
209.731903 60.0
238.172653 112.0
245.046494 104.0
257.223206 88.0
264.597778 188.0
269.025543 60.0
269.074524 80.0
287.549316 60.0
290.23526 60.0
311.961334 64.0
318.971039 20.0
335.367493 76.0
338.549591 48.0
344.500641 96.0
348.260315 100.0
506.081635 80.0
520.937378 60.0
618.142517 40.0
731.059814 52.0
870.236084 20.0
877.242737 192.0
878.150757 84.0
902.307068 204.0
925.634216 104.0
991.176331 172.0
1022.53064 168.0
1031.939453 228.0
1043.891235 144.0
1058.150757 200.0
1059.737549 156.0
1081.206421 128.0
1092.248535 68.0
1092.557617 132.0
1097.431152 304.0
1104.001221 200.0
1104.960327 96.0
1132.271606 88.0
1140.322388 172.0
1149.406738 176.0
1159.32666 184.0
1163.694946 184.0
1164.591309 120.0
1174.610596 224.0
1185.686768 208.0
1185.878662 160.0
1188.059082 204.0
1201.646362 128.0
1208.548462 176.0
1220.742676 172.0
1255.152588 148.0
1257.078247 124.0
1258.751221 168.0
1271.912231 140.0
1274.397705 168.0
1294.927856 152.0
1305.549194 208.0
1307.088501 48.0
1309.399292 220.0
1315.311523 64.0
1324.255493 132.0
1335.70166 64.0
1335.759888 212.0
1336.261841 128.0
1336.3927 56.0
1337.782715 168.0
1353.1427 180.0
1360.092041 128.0
1379.043213 148.0
1380.950806 172.0
1389.34314 112.0
1392.453247 196.0
1392.950806 208.0
1400.634644 140.0
1411.560547 144.0
1412.061523 232.0
1414.388428 56.0
1424.879395 196.0
1427.096436 112.0
1427.893555 96.0
1432.974487 216.0
1439.38562 44.0
1443.04248 204.0
1443.965088 204.0
1445.470459 132.0
1459.388916 144.0
1460.438354 176.0
1471.2052 132.0
1471.273926 156.0
1471.396118 176.0
1480.85498 176.0
1482.218506 192.0
1488.162842 100.0
1494.180542 180.0
1497.38269 184.0
1497.575195 40.0
1498.900269 64.0
1499.516724 208.0
1500.179565 148.0
