>compound Febuxostat
>formula C16H16N2O3S 
>ionization [M+H]+
>parentmass 317.096
#inchi InChI=1S/C16H16N2O3S/c1-9(2)8-21-13-5-4-11(6-12(13)7-17)15-18-10(3)14(22-15)16(19)20/h4-6,9H,8H2,1-3H3,(H,19,20)
#inchikey BQSJTQLCZDPROO
#Ion_Source LC-ESI
#Instrument qTof
#Compound_Source Isolated
#PI Sirenas
#Data_Collector Ed Esquenazi 
#Scan -1
#Precursor_MZ 317.096
#ExactMass 0.0
#Charge 1
#CAS_Number N/A
#Pubmed_ID N/A
#Smiles N/A
#INCHI_AUX N/A
#Library_Class 3
#SpectrumID CCMSLIB00000004824
#IonMode Positive
#UpdateWorkflowName UPDATE-SINGLE-ANNOTATED-BRONZE
#LibraryQualityString Bronze
#TaskID d19310cd93df49b68e9fcbec27720eb5
##Scan# 3
#SpectrumFile Febuxostat.mgf
#LibraryName fda_library.mgf
#MQScore -1
#Organism fda_library
#TIC_Query 0
#RT_Query -1
#MZErrorPPM -1
#SharedPeaks 0
#MassDiff 0
#LibMZ -1
#SpecMZ 317.096
#SpecCharge 0
#internalFilename spec-00000.mgf

>collision 10
100.016068 48.910042
102.032921 59.334518
102.096024 2.367424
103.041702 42.344528
104.768173 31.908331
105.041893 37.52409
106.062851 27.450001
106.297318 10.29643
109.012878 14.34167
112.315819 13.85494
114.036942 44.717041
114.435318 8.407609
114.698898 6.694445
116.047859 18.73485
116.107857 4.013889
116.460464 11.39951
116.648262 4.120098
117.000099 109.295898
117.044617 269.45871
117.056396 422.076996
117.077042 5.345238
117.095802 11.25621
117.652031 7.510417
118.027718 228.185501
118.258034 3.066667
118.386848 8.002192
118.403427 11.6875
118.607849 5.265351
118.860435 8.745155
119.069412 27.40056
119.095703 2.0
121.010643 182.727097
121.422852 5.668104
122.048546 17.390539
122.988571 58.985031
127.135719 18.603331
128.31073 16.245001
129.053268 14.52
131.614319 6.012931
132.044312 489.569397
135.023468 126.613503
135.081161 8.05
135.250305 12.96491
137.029007 16.49781
137.269882 15.49167
137.43895 17.298479
140.047241 30.25654
143.058609 60.82576
144.044022 89.679832
144.156296 2.041667
144.227325 7.337302
144.244034 8.79594
144.256958 4.225
144.297989 34.81702
144.319 36.021221
144.364578 20.148809
144.390442 7.054825
144.419571 2.669872
144.435852 10.08333
144.458282 16.03846
144.469772 12.77083
144.482285 4.763889
144.557953 11.39583
144.578537 10.36687
144.960098 22.04167
144.984512 5.022059
145.039703 15693.019531
145.091827 157.224304
145.128708 44.179329
145.14064 9.146739
145.16066 19.0
145.170944 22.18968
145.187225 44.82811
145.194046 7.015
145.202927 16.33333
145.223053 38.549999
145.234329 140.452103
145.259628 54.109631
145.286713 29.037121
145.294235 69.769234
145.312561 31.64007
145.324615 33.162628
145.35611 21.40243
145.388657 50.277
145.401352 45.52272
145.413879 10.59259
145.43811 28.725679
145.462448 15.69841
145.470825 17.026779
145.478836 30.11562
145.496017 10.04167
145.504227 5.342593
145.52417 8.856884
145.533417 27.337959
145.546326 7.019737
145.573746 15.90667
145.599426 9.440789
145.638824 19.502939
145.647125 17.341881
145.664139 35.808571
145.677399 19.028851
145.700943 15.4221
145.709869 26.156561
145.777298 11.00347
145.803772 23.2799
145.846619 12.45833
145.914551 18.63158
145.949158 13.97897
146.008408 13.33772
146.021912 113.5504
146.033737 17.371849
146.042297 388.708496
146.057587 157.241501
146.27446 21.56176
146.943115 8.028153
147.523544 7.75
147.707428 2.347222
148.004639 10.82843
148.02182 85.593712
148.236389 3.66886
148.248505 6.107143
149.013962 132.991104
149.059235 2.00463
149.420471 7.458333
149.458755 12.74423
149.487381 8.268333
149.998611 77.2342
150.038239 53.71212
150.639175 3.760417
150.648041 7.714285
153.044586 37.63575
155.057388 115.654602
155.229507 6.685185
156.043747 23.149691
156.066269 73.561653
156.241074 11.41182
156.784546 6.335318
157.044357 77.67318
157.075989 35.9902
158.781021 7.370614
159.014603 51.032551
159.906448 7.002778
160.01709 131.798203
161.027679 82.937927
161.113998 10.34205
161.234512 49.587891
161.404724 3.852273
161.423813 13.78125
161.471878 4.017857
161.579071 7.414216
161.882645 4.440476
162.000732 3121.808105
162.037048 1450.719971
162.077393 18.39394
162.089508 7.177083
162.135651 12.33772
162.145935 10.92045
162.158081 24.08333
162.196884 30.74094
162.207031 9.989943
162.228241 21.049801
162.237549 8.386905
162.273575 25.828279
162.286285 11.40351
162.300583 26.024019
162.353241 10.22685
162.401566 5.160714
162.419281 18.6721
162.430038 8.599999
162.521255 21.684959
162.547897 5.160714
162.828522 2.520833
163.019562 35.53146
163.093887 3.34375
163.400589 7.130208
163.649719 4.666667
163.747635 17.68611
164.171234 6.399193
164.197662 10.05235
164.541 14.51111
165.855591 7.763095
171.052505 57.79509
172.019882 25.01927
172.063171 79.682167
172.192047 23.01235
173.028198 26.01705
173.069916 161.631805
173.999252 287.033691
174.021744 274.876495
174.035416 120.940903
174.055161 2.341667
174.119522 6.453432
174.24762 8.854167
174.950989 13.33333
175.290161 3.6
175.365402 6.075
176.047852 3.025
176.624847 4.125
176.83342 7.668651
177.011154 39.377399
177.192535 7.300438
177.305283 6.208333
177.68074 11.49597
178.015152 21.07317
178.026321 54.204269
181.037125 17.714279
184.067184 66.015694
185.017258 23.33333
185.065292 52.690289
187.031525 211.002808
187.576248 7.670455
188.016953 60.409481
188.039734 159.364502
188.10498 4.694444
188.241867 19.09688
188.478119 6.696428
189.04895 965.893921
189.128021 8.422101
189.231506 7.218137
189.660172 7.410257
189.760208 6.454545
190.031647 326.530914
190.09108 1.875
190.148041 3.185606
190.167831 4.382936
190.242828 4.533333
190.450989 9.68883
199.034531 16.49721
200.012039 22.66852
202.015503 88.229301
202.261459 12.03582
205.994186 17.45833
206.02652 737.354919
206.067505 27.999571
206.085922 44.812801
206.10762 4.375
206.228928 11.23822
206.369644 7.037879
206.918945 11.675
213.155487 31.764669
213.694199 4.481482
213.785919 13.52778
214.018951 9.041667
214.136902 7.668651
214.860229 7.625
215.026428 2594.612061
215.08992 2.013889
215.104828 3.333333
215.126572 26.13389
215.166489 7.138889
215.248154 9.336538
215.281525 10.00595
215.303589 12.59333
215.357834 50.395248
215.397629 78.018143
215.420975 2.333333
215.453079 4.711957
215.511459 5.668104
215.544281 6.361111
215.600586 17.802311
215.670837 16.201599
215.699783 10.54833
215.717972 3.003205
215.736328 27.38669
215.768707 27.28182
215.789505 6.688889
215.80098 26.169941
215.815048 9.057693
215.833084 24.602301
215.866425 98.027237
215.931595 55.938519
215.951202 51.447701
215.973007 26.898439
215.984482 6.740942
216.016983 8.125
216.118179 47.39743
216.143021 10.29643
216.17189 19.394609
216.18895 54.19767
216.20285 12.93889
216.296921 42.77948
216.362259 26.66667
216.377609 9.694819
216.413437 10.67876
216.521332 11.44859
216.829529 24.611111
216.889267 18.88158
216.978882 46.742199
216.995865 32.668121
217.011108 158.599106
217.043076 27802.140625
217.105927 14.5307
217.207138 149.277405
217.218445 18.164619
217.230362 48.389839
217.257141 38.705582
217.271378 73.728523
217.320648 73.595383
217.345688 25.025511
217.377731 64.843239
217.396515 62.181881
217.413147 14.87188
217.444778 40.25589
217.477142 47.34409
217.530762 46.13718
217.568542 53.42186
217.601395 9.421296
217.636398 20.90312
217.659027 71.537651
217.675766 10.63274
217.690247 6.683333
217.720276 32.651291
217.795166 28.82803
217.965332 6.414216
218.090179 14.70249
218.283478 74.660248
218.358368 11.0819
218.537384 8.001666
218.556473 9.458333
218.701981 12.37045
218.830627 7.880051
218.902679 2.666667
219.011581 38.973919
219.022964 93.520668
219.06691 6.666667
219.098312 6.671568
219.15239 9.958333
219.221725 9.588542
219.246078 10.21814
219.366165 5.705246
219.398438 25.241119
219.422882 14.66774
219.464066 2.337963
220.134567 7.455883
221.439804 7.875
221.504517 6.354167
221.639557 9.022223
221.853775 5.041667
222.515869 15.35041
224.439545 1.666667
233.037308 237.971298
233.514587 13.66667
234.018524 241.917206
234.061066 8.557099
234.094482 4.673077
234.430923 7.852564
235.747437 6.690476
241.659714 16.301941
242.98732 12.07419
243.020798 1051.608032
243.089706 3.094697
243.193741 4.297619
243.306564 2.816667
243.411774 11.11574
243.485367 18.773809
243.539963 4.375
243.849716 13.23
243.950012 2.958333
244.22995 8.371913
244.958878 5.75
250.792862 4.963235
254.757828 3.708333
256.894531 6.352941
258.057037 45.306999
259.083405 5.185606
259.129883 20.029181
259.163513 10.41667
259.359589 24.845819
259.379028 4.75
259.399017 13.15207
259.443604 34.63726
259.459595 10.2402
259.493134 100.515701
259.523743 71.49176
259.552917 16.005951
259.568756 9.149692
259.583862 35.72942
259.601288 56.554119
259.64328 14.96323
259.661163 39.75946
259.693878 45.69511
259.761108 32.328369
259.797272 9.09375
259.815186 35.067829
259.88382 26.94232
259.908752 9.029761
259.929138 9.375
259.964142 17.013889
259.977631 7.333333
260.183746 4.670455
260.20047 2.678571
260.234161 9.823148
260.279053 3.675926
260.335175 15.66686
260.430634 8.213384
260.677124 5.531863
260.919281 8.372808
260.953003 7.843137
260.986542 24.82321
261.033173 28731.869141
261.108795 5.633333
261.14032 47.939949
261.183685 28.17667
261.211487 6.416667
261.225983 81.925163
261.25 41.10218
261.267151 32.0368
261.297394 67.020607
261.332794 70.257584
261.369324 105.008797
261.411316 96.095131
261.46283 121.917397
261.552032 19.214319
261.622162 18.0
261.663574 15.85361
261.700653 14.42455
261.731964 35.921822
261.758026 102.250801
261.783051 76.028511
261.86615 39.26543
261.980988 30.083691
262.102966 15.96078
262.196442 10.74383
262.320465 17.620689
262.717072 10.73039
262.876953 23.27899
262.935516 9.010715
263.121094 5.002193
263.2341 6.763889
263.307251 6.927469
263.393005 11.5187
263.651825 6.676802
264.231171 5.136111
264.799744 6.366667
274.644348 3.675
297.846802 5.391026
335.285339 11.3344
343.887665 4.681667
573.817444 4.387821
923.501221 15.125
