>compound Methocarbamol (Robaxin)
>formula C11H15NO5
>ionization [M+H]+
>parentmass 242.100449
#inchi InChI=1S/C11H15NO5/c1-15-9-4-2-3-5-10(9)16-6-8(13)7-17-11(12)14/h2-5,8,13H,6-7H2,1H3,(H2,12,14)
#inchikey GNXFOGHNGIVQEH
#Ion_Source LC-ESI
#Instrument qTof
#Compound_Source Commercial
#PI Dorrestein
#Data_Collector Garg_Neha
#Scan -1
#Precursor_MZ 242.102
#ExactMass 241.095
#Charge 1
#CAS_Number 532-03-6
#Pubmed_ID N/A
#Smiles C1=CC=CC(=C1OC)OCC(O)COC(N)=O
#INCHI_AUX N/A
#Library_Class 1
#SpectrumID CCMSLIB00000078264
#IonMode Positive
#UpdateWorkflowName UPDATE-SINGLE-ANNOTATED-GOLD
#LibraryQualityString Gold
#TaskID 77f51c88eb8b467eb4a01dd2d0cb90d2
##Scan# 1092
#SpectrumFile Plate4_41_60_GH4_01_16505.mzXML
#LibraryName FDALibrary_2_04302014.mgf
#MQScore -1
#Organism FDALibrary_2_04302014
#TIC_Query 0
#RT_Query -1
#MZErrorPPM -1
#SharedPeaks 0
#MassDiff 0
#LibMZ -1
#SpecMZ 242.102
#SpecCharge 0
#internalFilename spec-00000.mgf

>collision 10
47.204769 236.0
47.429298 220.0
48.108837 172.0
48.179268 156.0
48.765411 152.0
50.539444 188.0
50.581902 216.0
50.613045 248.0
52.740467 160.0
53.913361 172.0
54.296925 156.0
54.411377 156.0
54.971207 196.0
55.081425 140.0
55.395023 184.0
55.421688 168.0
56.011482 164.0
56.157555 148.0
56.496632 204.0
56.551998 200.0
56.593914 176.0
56.77523 152.0
57.224518 220.0
57.313385 192.0
58.211895 184.0
58.871277 176.0
62.594952 180.0
62.650078 164.0
63.756092 216.0
64.434891 204.0
64.514793 156.0
66.128181 208.0
69.361679 184.0
69.525879 152.0
74.166252 212.0
74.210823 164.0
74.282852 160.0
74.817299 204.0
74.863785 164.0
75.343292 192.0
75.529984 192.0
76.395584 232.0
76.663719 164.0
77.024872 192.0
77.7743 200.0
78.776237 176.0
79.060905 160.0
79.978485 156.0
81.644188 172.0
82.058334 196.0
82.116043 236.0
82.404861 192.0
83.412468 152.0
84.000633 228.0
84.856506 156.0
85.093178 152.0
85.530701 140.0
86.460915 192.0
87.041145 172.0
88.112114 176.0
91.051712 204.0
91.166573 148.0
91.756638 164.0
92.790955 184.0
93.028915 208.0
93.374702 216.0
93.705788 232.0
93.971855 244.0
94.074318 176.0
95.050598 708.0
96.051529 156.0
97.84462 152.0
98.43811 212.0
99.743729 188.0
100.267189 168.0
101.58886 204.0
103.05407 820.0
103.467094 180.0
103.846024 200.0
104.357979 188.0
105.068916 904.0
105.419746 184.0
106.731651 144.0
107.049599 304.0
107.079437 160.0
107.392715 140.0
107.446342 212.0
108.051674 464.0
109.175911 156.0
109.246628 164.0
109.761063 244.0
110.034248 636.0
110.074059 160.0
114.338905 176.0
115.040154 176.0
115.373413 172.0
116.550056 160.0
116.670418 188.0
117.066315 144.0
117.795311 156.0
117.957375 184.0
118.049583 12240.0
118.225876 228.0
118.535233 144.0
119.052238 412.0
119.732208 204.0
120.058601 180.0
120.216179 232.0
120.792976 204.0
121.027992 144.0
121.065018 496.0
122.010056 172.0
122.035225 2272.0
123.044174 908.0
123.259521 188.0
123.657822 176.0
123.987816 156.0
124.047028 196.0
124.611343 220.0
124.820274 172.0
125.058624 2524.0
126.026154 188.0
126.064423 388.0
126.343628 192.0
126.657021 196.0
127.062828 160.0
131.049774 364.0
131.094421 268.0
132.058823 160.0
133.06044 348.0
135.057159 156.0
135.079453 1672.0
136.048767 336.0
137.057617 908.0
139.360718 220.0
142.900864 216.0
145.063385 512.0
145.3853 140.0
145.462097 188.0
147.043945 184.0
148.051727 900.0
149.053894 472.0
150.954819 168.0
151.003723 184.0
151.074203 3720.0
152.076416 572.0
152.951889 200.0
158.964142 164.0
159.368408 164.0
160.856796 200.0
162.651489 156.0
162.745407 160.0
162.801285 144.0
162.994339 176.0
163.074738 10544.0
164.077408 592.0
165.080978 248.0
165.332581 116.0
166.039841 168.0
173.036514 276.0
181.085114 1436.0
181.143295 224.0
182.083817 392.0
183.047501 208.0
184.677536 180.0
198.794983 156.0
198.942551 172.0
199.095718 2248.0
200.099335 140.0
201.104355 216.0
202.113235 168.0
203.07074 160.0
203.976501 184.0
216.877625 172.0
223.025986 172.0
224.089096 1100.0
225.093536 144.0
241.111282 204.0
241.231827 156.0
242.100449 600.0
359.244507 152.0
1067.849243 216.0
1135.218628 152.0
1292.387085 164.0
1296.146118 248.0
1331.55249 212.0
1385.112183 196.0
1455.038208 152.0
1522.520752 144.0
1525.5354 180.0
1526.795044 184.0
1536.921631 184.0
1550.340088 200.0
1564.178833 152.0
1613.578613 192.0
1618.210938 220.0
1620.685791 224.0
1630.186401 176.0
1652.34375 244.0
1733.101562 140.0
1737.528931 224.0
1757.914062 140.0
1771.500366 204.0
1773.679077 160.0
1780.03833 176.0
1783.62561 144.0
1809.744141 192.0
1814.844727 236.0
1815.972534 260.0
1832.90686 168.0
1835.984131 240.0
1838.304565 156.0
1857.889404 208.0
1868.602417 144.0
1878.449097 168.0
1895.004272 252.0
1898.081299 180.0
1900.457886 184.0
1907.014282 148.0
1907.605347 180.0
1907.848755 156.0
1910.301025 152.0
1914.17395 176.0
1914.722656 156.0
1920.396362 200.0
1924.122437 140.0
1952.96106 236.0
1958.497314 176.0
1965.797119 148.0
1970.32666 192.0
1977.533325 164.0
1979.392334 168.0
1987.777832 224.0
1988.975952 156.0
