>compound Streptomycin
>formula C21H39N7O12
>ionization [M+H]+
>parentmass 582.2729461400905
#inchi InChI=1S/C21H39N7O12/c1-5-21(36,4-30)16(40-17-9(26-2)13(34)10(31)6(3-29)38-17)18(37-5)39-15-8(28-20(24)25)11(32)7(27-19(22)23)12(33)14(15)35/h4-18,26,29,31-36H,3H2,1-2H3,(H4,22,23,27)(H4,24,25,28)/t5-,6-,7+,8-,9-,10-,11+,12-,13-,14+,15+,16-,17-,18-,21+/m0/s1
#inchikey UCSJYZPVAKXKNQ
#Ion_Source DI-ESI
#Instrument Hybrid FT
#Compound_Source commercial
#PI Dorrestein/Moore
#Data_Collector Roland Kersten
#Scan -1
#Precursor_MZ 582.0
#ExactMass 581.266
#Charge 1
#CAS_Number N/A
#Pubmed_ID N/A
#Smiles C[C@H]1[C@@]([C@H]([C@@H](O1)O[C@@H]2[C@H]([C@@H]([C@H]([C@@H]([C@H]2O)O)N=C(N)N)O)N=C(N)N)O[C@H]3[C@H]([C@@H]([C@H]([C@@H](O3)CO)O)O)NC)(C=O)O
#INCHI_AUX N/A
#Library_Class 3
#SpectrumID CCMSLIB00000075310
#IonMode Positive
#UpdateWorkflowName UPDATE-SINGLE-ANNOTATED-BRONZE
#LibraryQualityString Bronze
#TaskID 216f7e25eb284d139eda10f0ea06e32c
##Scan# 8
#SpectrumFile Streptomycin_FT_582mz.mzXML
#LibraryName gnps_library.mgf
#MQScore -1
#Organism empty
#TIC_Query 0
#RT_Query -1
#MZErrorPPM -1
#SharedPeaks 0
#MassDiff 0
#LibMZ -1
#SpecMZ 582
#SpecCharge 0
#internalFilename spec-00000.mgf

>collision 10
160.06665 69.675056
160.314331 41.982071
160.355087 36.121761
160.463043 39.989983
160.492752 41.486763
160.521286 42.949306
160.554779 58.300007
160.666809 40.215023
160.880432 43.300747
160.929825 35.89888
160.953369 42.692188
161.080322 41.60627
161.12294 44.249569
161.184891 40.424683
161.193008 48.951267
161.339569 35.613251
161.362152 31.427807
161.487198 44.841667
161.542511 36.389847
161.573776 43.0298
161.696503 40.911541
161.806473 46.936623
161.809723 41.747066
161.837875 43.089695
161.86412 40.825722
161.864365 39.50354
161.992325 37.995296
162.096954 37.570946
162.23703 42.904999
162.308594 36.977665
162.398758 35.279037
162.441986 35.929779
162.453247 41.982094
162.674545 32.808537
162.92627 35.216534
162.926834 31.476086
163.101074 40.18346
163.194565 40.753235
163.246597 35.652828
163.319748 50.571476
163.480621 37.555328
163.805328 47.50156
163.838699 42.413933
163.857056 34.23135
163.914825 31.163385
163.915237 36.773144
163.925522 32.418846
163.931793 44.705372
163.962769 43.148865
164.055664 41.017353
164.09549 35.757843
164.253906 62.894039
164.280624 31.685467
164.380035 44.786907
164.454697 34.029968
164.474319 33.362392
164.61351 36.362614
164.616425 38.50349
164.632599 49.744484
164.712814 41.223038
164.79245 40.007389
164.81485 30.096167
164.877884 40.19582
165.055252 35.835373
165.064423 44.23708
165.110474 42.138336
165.112152 38.456337
165.191116 35.255714
165.20993 45.865612
165.309601 46.501785
165.310059 42.594646
165.400726 42.301144
165.428085 38.804867
165.468338 42.772091
165.488403 37.697102
165.494675 53.270523
165.569763 39.031681
165.783234 49.71822
165.793015 46.811752
166.101166 41.391396
166.162643 41.485268
166.256927 39.805767
166.321838 37.045029
166.49794 37.819614
166.610962 37.554848
166.806732 40.558117
166.986801 42.502537
167.043732 42.146774
167.115707 38.415188
167.293976 53.179974
167.44339 49.08992
167.447784 41.549389
167.517319 36.00507
167.630356 38.823067
167.734253 35.977524
167.795151 41.484932
168.076706 109.671165
168.17572 33.902958
168.27887 39.058289
168.292999 36.180347
168.29863 48.848396
168.561249 39.156868
168.652237 40.30798
168.795349 34.647766
168.861786 52.95137
168.989182 40.905781
169.205582 36.759083
169.317581 35.465725
169.320435 33.365818
169.352936 40.042889
169.525757 33.923992
169.621582 45.092915
169.701218 43.416451
169.795441 45.977753
170.091705 49.487961
170.419907 48.373241
170.484512 40.832817
170.51474 37.667301
170.651917 40.709885
170.665863 34.225296
170.776993 43.852207
170.802078 33.755547
170.823837 41.563965
171.036835 50.721153
171.070023 54.455704
171.149933 38.926727
171.268661 37.724602
171.419846 31.486639
171.517059 53.161324
171.713699 35.12212
171.892029 43.308289
171.93222 40.732967
171.971313 41.091404
172.077408 42.399063
172.28447 40.954651
172.354691 42.384811
172.35965 36.647423
172.391556 46.914986
172.416489 46.155254
172.535553 40.356731
172.735992 39.758347
172.879349 51.961586
172.976746 32.722279
173.085678 44.393452
173.162048 35.578926
173.170273 45.060631
173.23201 48.516651
173.387436 42.31601
173.679657 56.291897
173.782059 38.649792
173.87204 39.117737
173.984726 46.01749
174.021088 41.923313
174.106079 41.604446
174.448669 44.438515
174.612045 44.521294
174.649124 36.290318
174.783127 40.500164
174.810608 37.473354
174.871643 32.761646
175.228287 48.96114
175.503052 34.024815
175.524765 31.303228
175.609787 57.007362
175.65712 43.323193
175.688553 40.898434
175.709763 37.16806
175.833649 37.977535
175.896011 40.763458
175.924606 41.585022
176.004791 37.818161
176.090179 46.404812
176.090637 40.653126
176.091705 310.652496
176.114899 38.574013
176.315506 34.920933
176.3479 34.038303
176.464233 44.610104
176.489059 42.162849
176.755463 36.575748
176.758392 42.585011
176.902496 36.252666
176.902863 35.918449
177.031357 46.549973
177.067673 36.228504
177.142014 37.803188
177.143585 37.681973
177.243591 45.602482
177.286652 38.770908
177.324051 51.550694
177.362778 39.783463
177.389359 45.655991
177.395721 34.46273
177.465271 46.744301
177.552063 39.995255
177.57666 42.120396
177.760239 48.312973
177.820374 42.087318
177.832642 37.155071
177.836746 61.742287
177.84317 43.680439
177.885056 43.589127
177.907379 47.340611
177.969955 48.273777
178.256958 50.091648
178.311478 45.211784
178.422974 36.904713
178.445969 45.135273
178.460495 40.063408
178.516586 41.620487
178.553497 39.935574
178.554443 35.55027
178.577621 39.861927
178.66716 43.238811
178.788101 44.07439
178.854172 39.863956
178.879913 46.75124
178.93161 46.884777
179.048477 39.196785
179.102753 58.910484
179.249832 35.835835
179.264847 49.196789
179.508179 44.225578
179.607727 34.709488
179.682632 48.647831
179.782318 48.593861
179.787415 47.821606
180.022858 44.491207
180.128738 33.931999
180.249054 36.805222
180.397858 38.642731
180.589798 39.172417
180.841049 44.820217
181.031815 49.764267
181.060608 40.488308
181.153885 35.696995
181.249344 36.510567
181.287338 39.688801
181.486053 43.754265
181.487671 45.887058
181.796661 33.446339
181.970978 37.550163
181.97261 45.758224
182.028839 38.901485
182.089813 42.284332
182.505951 45.623238
182.581604 41.219048
182.582962 66.268524
182.885056 40.710663
183.008331 45.698154
183.026596 50.597961
183.09874 46.182415
183.242661 36.027088
183.36261 47.545956
183.496613 46.244892
183.732178 38.423939
183.843079 49.27322
183.889389 56.167568
183.942917 70.969299
183.990692 34.048397
184.124619 45.942467
184.210114 38.836346
184.25676 42.478481
184.324753 51.66655
184.432816 36.683777
184.464508 42.023067
184.692673 48.982197
184.729828 37.198944
184.737213 39.556797
185.021729 47.42379
185.103241 66.9981
185.203751 40.579163
185.421738 39.688377
185.463974 38.564804
185.634796 46.963768
185.725616 46.565582
185.784088 49.510849
185.785339 42.488434
186.085449 49.650631
186.087296 445.911774
186.142944 36.182507
186.286774 50.804779
186.478088 42.764191
186.524185 36.348507
186.580414 41.070816
186.959106 32.866821
187.093689 35.570377
187.310089 42.660442
187.569885 34.714256
187.70787 44.239628
187.757568 37.044289
188.158691 47.88665
188.623901 57.06171
188.859619 44.656513
188.895203 36.742134
188.946365 36.805794
188.950211 38.47134
188.964203 42.189243
188.993118 35.08284
189.035767 38.855919
189.037888 36.751049
189.073929 38.918514
189.103165 36.963085
189.133286 51.245586
189.469162 41.988068
189.567947 43.248707
189.568878 48.826443
189.704407 48.568375
189.848145 37.983665
190.025299 36.149147
190.350037 42.992729
190.573029 36.956169
190.606171 36.423367
190.653122 36.859226
190.745728 40.932201
190.81694 38.261623
190.865814 45.794403
191.200119 40.807407
191.210281 40.641243
191.215027 44.390018
191.273254 35.28651
191.318832 41.243824
191.453049 43.288525
191.790024 45.30698
191.812714 40.971745
191.878906 39.790066
192.025406 36.868793
192.069427 38.160118
192.087967 42.287125
192.166458 35.03307
192.241013 50.074184
192.257401 39.904839
192.267654 35.386425
192.402756 39.213604
192.432922 41.848408
192.444489 42.79628
192.850037 34.968266
192.89183 43.053829
192.943695 35.43037
193.107468 56.105103
193.174637 42.849251
193.196136 43.048061
193.582184 36.341629
193.648178 42.356781
193.695297 41.140598
193.739426 41.388912
194.105667 35.053066
194.115494 44.947697
194.153839 45.648167
194.191818 42.503784
194.462509 46.846134
194.488647 41.703701
194.490372 36.616566
194.632324 42.589489
194.672195 38.330162
194.692154 45.535816
194.904053 44.117615
194.977509 37.557751
194.992905 40.130016
194.993484 43.565548
195.049927 33.599327
195.079147 154.87973
195.080612 514.717163
195.162872 39.732216
195.285751 37.679455
195.539047 42.494972
195.572128 54.043709
195.704636 46.743557
195.781723 37.742317
195.908356 38.390568
196.140945 56.385487
196.282761 39.975014
196.428513 36.734455
196.465256 42.126274
196.715057 49.862274
196.761642 52.717636
196.792313 45.578049
196.801117 39.830589
196.878342 52.361855
197.042221 51.815582
197.10553 44.62405
197.329437 37.86927
197.42865 43.35836
197.521698 39.524673
197.794266 43.060753
198.019577 34.992126
198.070679 50.790462
198.101532 44.249695
198.165924 45.900436
198.626266 51.338017
198.635864 35.915016
198.813705 49.155041
198.928696 39.942169
199.130356 35.392323
199.197708 45.018883
199.311111 42.072422
199.805908 42.867886
199.929703 36.422596
200.023453 43.243301
200.166916 38.052895
200.309784 38.540321
200.404755 36.536213
200.531204 55.424442
200.550552 60.848228
200.853012 36.474873
200.909119 42.629017
200.971985 39.682632
201.031036 34.254929
201.099075 41.199215
201.207748 41.931492
201.220047 39.445351
201.232468 38.408993
201.287796 37.383121
201.464828 44.098679
201.491821 41.0896
201.518066 39.375614
201.626709 54.376274
201.703552 39.229893
201.785843 41.358936
201.956802 42.329971
202.022491 39.738544
202.051346 44.72757
202.054718 40.721333
202.100845 41.458591
202.360214 36.610909
202.473312 51.951717
202.548035 37.291958
202.597076 40.684002
202.648438 93.020515
202.661972 50.31358
202.789841 37.451107
202.82402 40.994267
202.846878 39.016983
203.111588 72.120575
203.113861 778.505737
203.456451 39.604542
203.590759 59.853832
203.592209 296.710876
203.593826 835.159668
203.63208 56.772305
203.793777 40.870132
204.023041 33.930084
204.095657 143.697479
204.097855 1339.610596
204.145508 35.903053
204.281845 38.677124
204.341446 36.784851
204.400467 38.683105
204.535507 41.519714
204.610626 35.959904
204.728104 36.978729
204.804062 36.982895
204.865738 44.075092
205.101257 140.166428
205.232086 38.371723
205.234451 38.219654
205.600891 38.910694
206.088547 48.722687
206.12291 38.438179
206.360443 59.653145
206.60965 37.419136
206.742416 43.662426
206.842957 43.820606
206.915115 39.129841
206.965057 36.370266
207.176361 46.834236
207.309036 45.452835
207.641693 41.048767
207.730896 53.623219
207.776276 43.063068
207.810989 56.535904
207.860352 37.173038
208.058273 45.006802
208.265228 37.406494
208.328384 50.437607
208.394501 40.804996
208.529877 40.001446
208.57486 40.139862
208.7509 48.849388
208.897232 44.240341
208.901794 41.387009
209.045761 46.329082
209.118851 54.399113
209.218506 39.265617
209.311539 55.218422
209.435242 45.914108
209.514725 41.069256
209.879593 37.718739
210.129837 40.812988
210.219269 51.081505
210.28891 43.840542
210.346573 42.308483
210.39296 40.421734
210.593262 39.339897
210.608276 48.42812
210.610107 48.169247
210.820419 55.676563
210.870895 41.860779
210.937256 40.036659
211.082672 93.234879
211.328766 49.527634
211.417953 42.329529
211.570663 38.132076
211.700943 45.554779
212.053207 36.133553
212.30249 53.724957
212.497375 43.643181
212.535049 42.828445
212.694199 44.01202
212.963455 38.219975
213.091141 44.16053
213.199646 44.950352
213.323273 41.106693
213.493073 41.822701
213.689865 43.685989
213.722229 43.31871
213.729889 60.590534
213.735382 37.544632
213.889236 39.649036
213.921097 43.989407
214.247696 45.171951
214.462341 41.675884
214.590225 36.685303
214.838333 44.016396
214.997116 42.682404
215.091263 43.019543
215.840256 41.103035
216.674759 42.309124
216.775391 43.524292
216.784378 41.9291
216.824432 43.80917
216.885651 38.185406
217.053589 44.322803
217.069214 52.888023
217.091873 54.719959
217.094421 304.402161
217.255219 40.768871
217.26297 39.928402
217.433975 46.858391
217.857925 38.403671
217.8741 39.015751
217.896545 37.044418
217.970596 35.899178
217.97139 36.76128
218.01947 39.811615
218.047226 33.739563
218.097641 53.403831
218.102325 146.928955
218.211426 43.420395
218.240631 38.190525
218.26976 48.445118
218.55162 38.353943
218.577057 42.55777
218.596466 40.602051
218.633179 39.190441
218.727341 48.163879
218.805466 40.416954
218.872864 37.177452
219.095062 52.315044
219.184418 50.605885
219.320877 33.371582
220.191422 50.245777
220.312698 58.53067
220.344757 40.398762
220.718613 40.030205
220.790192 48.509972
220.975571 43.045719
221.121796 303.449158
221.12442 2640.052002
221.387527 35.695457
221.68692 41.966042
222.127777 203.53743
222.143143 33.000149
222.143921 33.669685
222.515671 41.445381
222.680481 49.262257
222.796921 41.202499
223.018402 56.553852
223.131393 42.448845
223.633698 38.339149
224.430298 39.754387
224.548904 57.434334
224.835266 38.907345
224.868881 36.619164
225.16449 44.212128
225.480301 40.913857
225.550781 44.171375
225.728394 55.160355
225.738464 46.06868
225.871597 46.192184
226.480331 44.143818
226.725784 42.817989
226.745773 47.522163
227.08371 43.833569
227.161255 51.667942
227.265121 41.113369
227.281815 41.508015
227.378128 48.676991
227.504028 38.08987
227.511673 37.925896
228.021866 37.908577
228.109039 254.363754
228.205658 37.583759
228.229095 56.242523
228.310959 42.40498
229.093124 482.652679
229.14859 37.949753
229.187302 40.113064
229.213181 47.891663
229.223618 40.432285
229.296066 36.232967
229.721649 42.919014
229.732437 40.104141
229.930771 53.066498
230.205048 46.924259
230.487244 38.487816
230.701523 46.677273
230.779724 41.144165
231.239075 42.459724
231.253021 36.713394
231.390045 69.886185
231.511765 40.587753
231.680161 41.715134
231.91803 47.383644
231.920639 37.031742
231.931763 45.558773
231.966736 48.852402
232.034332 46.331585
232.092453 116.318871
232.105988 41.425751
232.148224 38.857578
232.191559 41.160126
232.300156 40.329029
232.506195 45.780388
232.709229 35.642147
232.777695 48.532703
232.920792 46.054211
233.291199 40.339256
233.363052 54.234329
233.553558 44.775055
233.799103 41.704796
234.066101 41.862236
234.074753 45.1152
234.557739 39.924622
234.867233 38.16246
234.922928 39.726727
235.085175 40.503067
235.239426 38.789696
235.355164 38.372997
235.47908 42.396111
235.48291 47.625824
235.558441 66.70034
235.595612 54.843887
235.913681 50.022236
235.937515 38.696884
235.940445 39.832657
236.015579 41.706165
236.091751 53.248745
236.18309 44.316952
236.196335 42.396805
236.304443 47.558895
236.987778 39.006893
237.172318 42.601597
237.394073 52.01355
237.447952 35.445759
238.26976 40.847126
238.279663 44.655479
238.324127 42.296566
238.394333 65.915573
238.527115 40.190922
238.539474 38.683544
238.555237 44.004848
239.343994 63.555386
239.484589 37.50256
239.852661 39.503216
239.980942 42.256264
240.01329 47.136116
240.420761 42.424129
240.455063 49.728928
240.498016 52.982975
240.897141 41.464134
241.019562 52.141964
241.075485 44.473293
241.545303 43.393459
241.575058 42.304909
241.578339 41.615604
241.674988 49.522148
241.71051 42.079971
241.88205 46.859905
242.205414 38.864361
242.354355 39.890469
243.336304 36.419773
243.97081 36.32061
244.117737 151.599091
244.140106 40.689892
244.218292 45.529652
245.13559 262.642578
245.290176 42.272881
245.479233 49.401932
245.779587 42.280903
245.818268 41.781307
245.839706 43.332752
246.111969 62.681694
246.113892 150.499176
246.116364 1584.619629
246.119476 16113.274414
246.122147 146.553146
246.12291 134.838425
246.179855 39.949364
246.232468 44.542183
246.740921 35.270668
246.749817 51.33884
246.782639 41.329575
247.116653 241.968414
247.119705 119.584999
247.123001 1279.818848
247.256653 44.596397
247.371872 42.187382
247.635025 45.634003
247.768845 50.391991
247.805359 41.352619
247.993149 41.416199
248.803314 39.142857
249.01976 54.534618
249.115753 69.024895
249.119308 337.716309
249.280655 41.616642
249.340897 35.715572
249.500778 42.39238
249.636581 46.106178
249.654236 47.027756
250.369797 37.722527
250.634293 55.125923
250.87767 43.266556
251.447693 54.650124
251.507401 51.916523
251.787094 42.216125
252.127563 44.287178
252.3423 48.382431
252.566406 45.98296
253.500641 51.76445
253.595917 52.504322
253.623062 47.763283
253.994995 35.182537
254.882095 50.135044
254.91951 44.105022
254.927948 37.769295
254.944366 41.287323
254.980392 38.525959
255.12793 41.591736
255.214035 51.287582
255.255035 44.982605
255.489349 39.807922
255.677139 50.305435
256.987671 44.935146
257.08786 56.665371
257.210632 48.503986
258.097198 137.65976
258.481293 44.371197
258.499176 48.348022
259.149017 50.834724
259.545502 50.555218
259.586365 53.19939
259.848267 39.233818
259.938904 37.692955
260.054932 39.955444
260.078094 44.474033
260.262085 44.767818
260.31897 52.223843
260.549957 40.260303
260.885345 37.955906
260.968384 73.154472
261.13446 43.697411
261.375885 37.867428
262.301727 52.151543
263.058502 43.867725
263.059906 37.473083
263.135498 91.108376
263.138062 134.129257
263.139709 239.526505
263.142548 2502.284912
263.145874 28762.107422
263.148956 300.838684
263.149811 270.326691
263.273315 41.411919
263.415253 44.173794
263.717407 46.265278
263.737152 48.057629
264.14328 510.103271
264.14566 186.604996
264.149567 2221.148682
264.215607 43.464012
264.254669 39.682724
264.360657 45.725639
264.420288 57.946304
264.453217 40.294014
264.69751 42.627033
265.305206 52.34581
265.51123 47.040916
265.938171 45.787563
266.028809 36.248005
266.102112 153.882004
266.360657 40.565247
266.394928 46.872658
266.43866 47.108452
266.477448 55.884747
266.968933 49.00993
267.125885 45.849674
267.178406 39.977161
267.17984 40.408043
267.919159 37.590218
268.000641 38.40593
268.441254 37.99955
268.949707 46.511936
269.110504 39.424725
269.119263 43.289448
269.123413 42.516209
269.179535 44.053482
269.222504 38.905087
269.29422 44.025169
269.390564 49.001842
269.452789 41.606567
269.547577 38.725319
269.900421 48.046894
269.96756 48.323719
270.097107 64.085678
270.119507 155.427765
270.122223 279.480347
270.124786 808.151917
270.171692 35.625923
270.212708 51.336006
270.417236 44.984779
270.62616 102.992256
271.103516 102.526726
271.180115 39.000839
271.390198 37.332249
271.505035 49.793461
272.10611 37.000595
272.21814 52.411873
272.713196 43.307777
273.345734 58.588787
273.590912 51.293133
273.616852 72.828758
273.687622 51.827267
273.80069 44.567829
274.110565 96.309929
274.114594 1049.340942
274.455536 40.701862
274.655579 42.833023
274.978912 48.582745
275.117615 88.975586
275.455566 43.303387
275.4711 42.603893
275.634613 41.889889
275.653992 43.408154
275.883728 42.022087
276.107788 207.823944
276.698242 47.399174
277.691437 47.866386
277.734833 46.392731
278.09198 46.020866
278.467072 34.703522
278.886383 51.927769
278.955902 48.031082
279.007111 40.431355
279.016296 39.887356
279.070251 38.209881
279.129974 58.650372
279.515564 52.720058
279.636383 50.486824
279.714172 41.57238
280.522675 39.318092
281.483856 38.455479
281.81543 38.363281
281.895386 42.733078
282.130554 67.604919
282.383484 39.667229
282.497192 49.199455
282.61969 75.059174
282.622284 182.509445
283.035919 43.958656
283.059387 46.610916
283.200317 69.649673
283.490723 43.145542
283.730408 56.153835
283.743103 47.450157
283.780548 51.050091
283.936981 47.177025
284.112793 498.841461
284.134949 90.510681
284.394135 42.792248
285.11908 59.933243
285.637512 43.330692
285.667877 46.080067
286.114594 190.730301
286.166016 45.38081
286.630249 51.766212
286.758118 46.058426
287.064789 45.400436
287.141296 52.352509
