>compound Simvastatin
>formula C25H38O5 
>ionization [M+H]+
>parentmass 419.279114
#inchi InChI=1S/C25H38O5/c1-6-25(4,5)24(28)30-21-12-15(2)11-17-8-7-16(3)20(23(17)21)10-9-19-13-18(26)14-22(27)29-19/h7-8,11,15-16,18-21,23,26H,6,9-10,12-14H2,1-5H3/t15-,16-,18+,19+,20-,21-,23-/m0/s1
#inchikey RYMZZMVNJRMUDD
#Ion_Source LC-ESI
#Instrument qTof
#Compound_Source Isolated
#PI Sirenas
#Data_Collector Ed Esquenazi 
#Scan -1
#Precursor_MZ 419.28
#ExactMass 0.0
#Charge 1
#CAS_Number N/A
#Pubmed_ID N/A
#Smiles N/A
#INCHI_AUX N/A
#Library_Class 3
#SpectrumID CCMSLIB00000005802
#IonMode Positive
#UpdateWorkflowName UPDATE-SINGLE-ANNOTATED-BRONZE
#LibraryQualityString Bronze
#TaskID d19310cd93df49b68e9fcbec27720eb5
##Scan# 1
#SpectrumFile Simvastatin.mgf
#LibraryName fda_library.mgf
#MQScore -1
#Organism fda_library
#TIC_Query 0
#RT_Query -1
#MZErrorPPM -1
#SharedPeaks 0
#MassDiff 0
#LibMZ -1
#SpecMZ 419.28
#SpecCharge 0
#internalFilename spec-00000.mgf

>collision 10
101.059746 54.008759
102.367287 15.00577
103.03595 75.944923
103.057487 49.666672
103.078819 7.510965
105.069275 797.835815
105.116844 5.522727
105.669205 20.22315
106.354584 8.934524
106.549156 5.927083
106.63105 3.34375
106.717285 10.35
106.728065 14.3668
106.785576 5.005952
107.049088 2496.504883
107.085449 2409.000977
107.144783 7.160417
107.158791 11.00556
107.166328 9.076014
107.1744 3.354167
107.18779 23.82095
107.265167 56.332539
107.297684 6.041667
107.32196 4.844298
107.513 4.340909
107.521217 2.893518
107.585152 5.415
107.628464 4.335784
107.711639 6.466667
107.798157 5.668011
107.899658 9.858334
108.109009 11.06136
108.195839 14.70127
108.204178 12.94707
109.06263 22.64007
109.099533 62.783291
109.204163 6.674242
109.360641 5.208333
111.079323 258.275787
111.264191 10.06618
113.057442 63.724751
114.045303 49.08696
114.453583 11.66729
115.0354 36.15731
117.066353 75.053047
117.088272 35.199909
119.085823 531.005981
119.119392 8.480073
121.067673 27.760509
121.100906 575.991577
121.146103 3.416667
121.384224 8.001985
122.275887 8.408951
123.04319 71.17968
123.078674 129.908997
123.116554 85.978142
123.224007 11.33889
123.885246 13.4697
124.179543 9.711957
124.210747 3.714286
124.354546 5.265351
124.400894 14.16964
124.410507 5.583333
124.478851 13.41223
124.486679 9.556818
124.493103 19.198811
124.505653 3.802778
124.579361 5.666667
124.595436 8.41523
124.7425 10.68421
124.7733 13.76894
125.059593 4728.887207
125.106743 26.23571
125.123566 9.342949
125.132431 8.680555
125.152176 27.934521
125.190796 56.341621
125.213303 19.320181
125.225853 36.857971
125.248337 8.054825
125.255226 24.68877
125.282143 8.42803
125.299904 14.46759
125.312454 20.33712
125.322113 6.033602
125.361862 17.850571
125.368851 7.486111
125.380539 9.686275
125.418053 13.8
125.431183 8.0
125.443253 15.06136
125.473999 4.028846
125.498711 19.84025
125.571526 24.33559
125.59642 6.25926
125.758736 16.76115
125.770439 5.017857
125.801514 26.493361
125.814674 16.96003
126.379456 3.791667
126.877029 3.125
127.075745 367.245697
127.119995 2.666667
127.193359 24.226
127.233772 6.708333
127.320114 4.363636
128.060974 57.001068
128.094604 6.671053
129.066147 67.606483
130.079193 21.146339
131.085114 1067.171997
131.139221 11.7172
131.168564 9.421875
131.221817 29.69396
131.278656 8.260417
131.554398 2.333333
131.572433 5.136111
132.291946 20.069969
132.510376 6.05
132.726715 4.007576
133.061264 50.139431
133.101212 479.608185
133.135834 3.337121
133.147934 3.802778
133.24826 9.333333
135.079819 71.55619
135.115204 270.875305
135.166641 3.016667
135.219223 4.120098
135.375931 8.190217
137.059433 111.602097
137.096497 80.21106
138.204834 17.252081
139.072891 106.360901
139.144073 8.307693
139.422852 14.69444
139.849823 69.666893
141.06601 21.805559
141.088623 95.83078
141.4319 4.333333
142.074371 71.441566
142.090836 30.63912
142.231873 2.520833
142.262939 7.714285
142.280411 26.603359
142.350052 15.67593
142.397232 38.579109
142.418472 17.84178
142.428665 20.409719
142.46347 5.469444
142.627686 7.394608
142.744492 7.291667
142.903992 8.371913
142.97728 11.72429
143.070877 5953.130859
143.120056 32.788021
143.13916 53.708221
143.190872 14.48333
143.205429 18.802931
143.223495 21.56757
143.231445 19.09668
143.239517 13.89855
143.269897 25.88372
143.29892 11.78914
143.306503 21.38294
143.347473 5.906746
143.364594 8.388441
143.416779 6.933333
143.444046 3.185606
143.463898 6.760417
143.490097 11.58333
143.514359 18.4636
143.522842 18.382721
143.535202 5.335
143.572708 14.40774
143.610229 13.41336
143.82634 8.844298
144.041779 3.148809
144.088486 130.445801
144.123611 48.18726
144.208755 32.918289
144.257431 12.70525
144.336823 26.354349
144.366943 12.85201
144.411789 18.34639
144.46196 6.75
144.654373 6.070402
145.100494 2005.222046
145.164108 2.708333
145.211288 21.502001
145.278473 8.333333
145.291061 9.741667
145.328506 51.03989
145.442062 9.527778
145.456482 9.054487
145.530228 16.021259
145.551437 5.160714
145.568542 12.30242
145.623062 6.335318
145.693924 14.51022
145.958572 16.81175
146.075089 5.669445
146.259888 4.777778
146.34549 12.03125
147.115723 332.148407
147.167023 4.022059
147.184189 4.681667
147.588455 5.669445
147.703781 8.847222
147.802078 7.5625
148.685837 3.008333
149.022141 4.490385
149.095581 50.828308
149.130234 56.074921
149.191544 4.684524
150.221558 19.357531
151.075912 179.534103
151.110458 29.49843
151.146561 6.640152
151.263245 14.92004
151.349411 6.449713
151.375092 19.00219
151.498444 5.523809
151.820572 2.666667
153.086716 22.25338
153.279816 10.57341
154.075836 10.00126
154.458542 4.483333
154.477142 17.294121
155.084045 158.562103
155.102234 52.471432
155.230408 12.24537
155.300034 39.110119
155.312988 12.39583
155.436707 31.682541
156.093658 160.527298
156.403885 9.053572
156.551666 5.041667
157.100372 902.333313
157.14772 25.77387
157.173096 27.032631
157.226013 8.333333
157.339798 6.673611
157.352539 6.081667
157.597015 7.372807
157.911102 5.898148
157.972198 4.891667
158.252884 22.421391
158.268539 18.4
158.335953 8.109649
158.353546 8.647059
158.409943 10.34722
158.502899 3.185606
159.076691 48.97982
159.116547 2766.961914
159.168777 8.403508
159.199509 5.801667
159.208649 23.831619
159.297348 9.926471
159.33638 28.19343
159.423447 9.363095
159.445404 9.334596
159.467377 6.6875
159.498093 6.002778
159.507431 7.683333
159.777573 8.341666
159.827011 85.532333
160.206818 12.92188
160.439713 3.413462
160.499039 14.04617
160.796875 12.40833
161.093643 54.741051
161.10202 22.29657
161.132324 141.724197
162.134216 80.636452
163.078323 90.828682
163.110062 148.479294
163.708237 4.335145
163.784973 22.263161
164.260651 8.009616
165.09169 33.305752
165.124252 53.136082
165.275116 32.033401
167.107269 200.636703
168.17038 12.97283
169.066071 17.33642
169.099747 1265.947021
169.177658 7.866667
169.207214 9.630208
169.219955 7.2
169.282623 18.46759
169.491562 10.08232
169.51828 2.75
169.568726 30.88759
169.64624 15.59393
170.274918 14.35556
170.388977 15.78241
170.581177 12.15
170.834839 3.669872
170.949875 9.426724
171.078323 21.351851
171.117126 2130.090088
171.163208 23.49802
171.185303 3.672619
171.194397 6.107456
171.230667 8.20119
171.239761 6.449713
171.329559 7.334349
171.344498 5.671875
171.453796 5.7
171.643448 17.92905
171.677078 7.704166
171.761414 4.25
171.850937 6.3
172.055618 9.797101
172.1418 47.06625
172.181366 21.69565
172.201965 74.193367
172.238205 5.382936
172.255188 36.80439
172.26796 13.45833
172.29805 26.75111
172.326309 12.69338
172.361206 25.686489
172.388901 11.33654
172.407181 16.66975
172.461868 15.56053
172.479568 8.306159
172.516815 8.0
172.585373 12.36794
172.612549 12.0704
172.630829 14.20833
172.828003 11.57143
172.845932 13.4697
173.07016 6.688889
173.096512 162.355698
173.132355 19486.650391
173.171509 35.683708
173.188583 212.755096
173.240723 29.940479
173.257706 42.422199
173.27269 19.26667
173.285553 26.38415
173.29454 12.70833
173.335236 84.096497
173.35527 37.700562
173.380539 61.567169
173.394531 13.34248
173.420822 37.055779
173.442307 43.94281
173.455811 12.55682
173.469437 38.00066
173.49202 80.559242
173.50444 23.885969
173.530807 17.07918
173.55159 72.676804
173.62674 14.71204
173.667999 56.537579
173.705505 11.0049
173.71608 2.337963
173.729477 14.44907
173.7388 34.24683
173.768311 11.48302
173.795074 24.48489
173.817078 24.424061
173.844955 17.66667
173.910172 7.782407
173.952347 46.326618
174.029953 66.234001
174.27887 9.490196
174.303482 13.13611
174.404556 8.240196
174.59819 26.35458
174.68425 3.027778
174.981232 8.160088
175.053024 4.760417
175.113052 9.111112
175.172638 6.005952
175.287888 21.44002
175.508759 3.020833
175.566635 54.081089
175.61676 6.25926
175.873184 7.668651
176.725449 11.04167
177.09346 26.4
177.209061 4.669117
177.385605 20.83333
179.103653 58.510872
179.141556 36.65987
179.438965 3.857143
180.544296 10.13333
181.088013 18.59214
181.103836 63.0
182.056992 20.25325
182.102127 87.885033
182.16716 12.57586
183.11618 793.594971
183.276321 10.89851
183.351181 4.714286
183.450806 6.371212
183.563309 8.011363
183.596329 6.342593
184.355652 3.761364
185.0961 125.613899
185.131683 699.618774
185.188309 6.458333
185.213104 9.672222
185.297211 6.728535
185.321228 11.25926
185.429886 12.08681
185.545258 9.523809
185.794205 7.683333
187.11058 64.023277
188.566406 2.482143
188.841965 18.66987
189.090103 336.828613
189.125504 15.60926
189.163391 27.35461
189.239029 6.673611
189.299362 11.89799
189.40657 4.408333
190.145844 7.935
191.073502 39.786678
191.106506 755.630676
191.16777 3.028846
191.254364 8.671569
191.28804 5.679598
191.303818 16.72941
191.46611 18.77067
191.492584 2.916667
191.528717 18.002871
191.755051 5.705246
192.284927 14.01667
192.493118 21.013889
192.538345 49.255169
193.098663 135.978394
193.122437 137.105896
193.397095 8.827381
194.104202 56.916672
194.316788 3.666667
195.110077 189.117493
195.389816 5.177632
195.511139 6.453432
195.638306 26.513889
196.061646 6.720238
197.131302 907.036194
197.159195 4.71627
197.192703 3.027778
197.256912 8.700269
197.615555 4.777778
197.805695 36.302872
197.853073 9.826923
197.887009 30.566999
197.908279 50.205681
197.931198 127.150497
197.941635 7.342593
197.973221 115.587097
197.990494 8.67803
198.012665 135.664902
198.02951 92.286758
198.055023 45.058479
198.083694 70.151314
198.1035 72.3255
198.163437 60.378578
198.193359 30.867821
198.213699 125.3274
198.265671 4.816667
198.286835 17.89259
198.311584 39.10667
198.329941 35.0784
198.351898 16.52083
198.432877 19.77107
198.469818 28.850451
198.487518 21.96014
198.627167 11.3869
198.669891 6.805555
198.681305 5.801667
198.738022 18.088381
198.750229 5.939394
198.769592 14.0056
198.869888 48.607719
198.910034 20.370501
198.956665 6.906746
199.049744 34.71656
199.071335 7.375
199.148361 52387.699219
199.307144 18.193451
199.347244 16.52083
199.374084 33.253429
199.40744 35.871799
199.425491 28.012039
199.446777 116.664101
199.463669 51.89806
199.478012 37.398369
199.49913 12.84964
199.510345 43.009521
199.523483 110.915901
199.544128 93.452431
199.574234 111.489998
199.591721 21.562111
199.605057 13.31122
199.63121 133.353806
199.672897 158.097794
199.71048 119.828499
199.725403 17.039221
199.736572 20.742241
199.751801 22.222349
199.764465 22.294121
199.787827 39.3857
199.806671 85.660667
199.828964 82.366364
199.865555 79.818047
199.904053 37.8125
199.994888 44.827019
200.063004 15.125
200.074997 88.775101
200.119812 38.34087
200.197296 13.12247
200.244156 17.96191
200.276337 24.236719
200.348877 32.967171
200.390701 56.26926
200.411163 40.931808
200.563766 9.138888
200.733383 52.98666
200.784378 19.57704
200.938461 5.121212
201.089554 38.690262
201.106171 5.422101
201.16362 7924.869141
201.206665 31.96377
201.224716 77.565659
201.274902 28.64085
201.298615 18.035089
201.32193 15.99287
201.421738 59.537922
201.447006 18.690889
201.462158 8.856061
201.476486 11.45833
201.50795 45.162189
201.565247 8.005555
201.631042 15.79745
201.651688 3.208333
201.684921 26.12698
201.760544 35.822109
201.866638 4.666667
201.882767 10.01587
201.955765 31.25128
201.995178 25.84127
202.030991 8.865196
202.05011 14.7555
202.108871 15.44444
202.311737 8.383333
202.388229 19.93116
202.435455 5.378623
202.474365 17.46261
202.544815 21.0375
202.817429 37.331051
203.014816 12.69928
203.105469 279.919586
203.441513 8.33422
203.532684 5.136111
203.56456 14.3649
203.729416 13.425
204.047333 3.703704
204.181519 6.364899
204.314178 16.380951
204.35051 2.6875
204.555344 10.44444
204.902863 5.827381
205.067886 13.41223
205.120422 486.041687
205.185883 4.297619
205.231766 3.0
205.640991 3.857143
206.102402 74.296669
206.289719 5.160714
206.46463 18.213671
207.116364 218.212296
207.165039 2.333333
207.333603 3.933333
207.404709 19.489811
207.920425 10.23148
208.058289 3.857143
208.114975 106.588097
208.192368 24.390539
208.418823 11.21491
209.117325 1666.560059
209.177811 11.68333
209.243225 4.011905
209.270905 6.958333
209.308807 2.761364
209.367371 31.04694
209.405869 15.78333
209.445358 3.555556
209.676224 18.768999
209.832413 6.333333
210.138123 127.568298
211.110458 251.372604
211.14566 275.314514
211.306213 12.35897
211.326721 6.666667
211.38298 15.43841
211.528214 22.2272
211.594849 6.840517
212.674179 7.605556
213.122467 62.06633
213.164703 82.874641
213.476456 4.349638
213.687454 5.333333
215.10582 127.951897
215.180405 909.893799
215.223465 7.018518
215.3629 14.84058
215.423065 5.564815
215.478729 7.009615
215.540131 21.203251
215.574188 36.762218
215.742294 6.469444
216.318039 6.075
216.358765 15.18947
216.645157 5.5
217.117432 55.838291
219.009964 6.555555
219.114609 4.041667
220.17131 3.490385
220.336807 11.28004
221.111374 102.752998
221.136139 19.66667
221.752975 6.041667
221.842056 6.361111
221.967484 38.049419
222.002716 14.00278
222.272339 4.711957
222.418121 60.43005
222.780914 7.782407
223.146774 2471.105957
223.195694 4.888889
223.223434 13.40972
223.259613 27.383011
223.292282 27.467871
223.348892 39.912682
223.394211 17.34783
223.443237 18.82571
223.482468 2.666667
223.580185 20.17647
223.6073 8.920045
223.643265 9.421875
223.733871 46.523499
223.810226 8.024224
223.831039 5.007576
223.843903 31.379311
223.87825 93.356018
223.910126 17.53146
223.92485 26.36179
223.964127 16.25926
223.987457 41.492451
224.014862 3.148809
224.032394 25.46497
224.061874 10.6299
224.072998 17.52961
224.093292 16.42942
224.109436 23.637131
224.185104 15.67464
224.212341 15.40909
224.31015 19.6875
224.523834 13.11725
224.58165 11.26667
224.640457 24.933889
224.716721 11.06667
224.75618 30.394051
224.789749 10.0
224.930603 11.21333
225.125595 197.981506
225.163635 20742.779297
225.227158 119.111397
225.24791 55.760681
225.28418 28.57445
225.302704 8.974359
225.323669 106.758698
225.376877 88.660553
225.390625 36.255939
225.411148 49.58437
225.435165 77.548576
225.449265 96.979156
225.4897 72.674667
225.52356 41.697369
225.543655 50.316212
225.562973 56.153412
225.57991 13.45614
225.603409 82.219131
225.646759 22.15641
225.683685 36.35173
225.735443 84.471733
225.756866 59.888271
225.794144 58.710251
225.875961 4.001812
225.89064 48.464199
226.07991 9.724999
226.199387 17.777781
226.214676 7.0
226.345657 16.80167
226.640152 11.73016
226.65567 11.34921
226.667755 6.414216
227.138962 122.4104
227.2285 3.266667
227.300217 2.722222
227.52594 4.335
227.788651 4.844298
227.946899 5.006944
228.045639 9.900926
228.47673 10.79167
228.897614 6.0625
229.12146 865.510681
229.166809 8.774123
229.181961 2.675
229.202988 7.001437
229.266449 3.490385
229.383102 2.680556
229.42572 13.34467
229.450592 4.333333
229.492508 9.916667
229.708878 13.36218
229.861816 17.206051
230.104568 9.32545
231.140976 52.0009
231.890564 18.135639
232.474762 3.714286
232.649826 11.33631
233.855927 14.08265
234.13887 29.3249
235.130096 88.928253
235.172165 158.709198
237.72934 24.032631
237.762329 9.107142
237.804337 25.497971
237.863922 14.45833
237.879929 11.625
237.91954 12.375
237.936356 10.1131
237.967743 20.779461
238.190094 7.763889
238.244995 16.5977
238.685898 13.81667
239.141174 315.316895
239.179321 4469.183105
239.240005 17.200569
239.262604 17.75
239.307678 6.748333
239.334061 11.27117
239.36232 5.107456
239.392609 11.20427
239.456665 29.037041
239.5159 38.602188
239.539932 12.77844
239.572174 13.67157
239.600372 13.16667
239.679947 13.02671
239.702316 12.31317
239.725449 5.703947
239.746643 9.338889
239.770645 25.119989
239.831863 22.215891
239.84697 4.681667
239.874054 18.13611
239.905243 7.3
240.057098 6.399193
240.114639 23.938959
240.283539 3.375
240.59642 6.334677
241.156555 218.740097
241.19458 424.546906
241.449783 11.73684
241.550156 13.85516
241.618195 85.669609
241.715225 61.23922
241.748184 57.797569
241.776169 27.53146
241.790085 36.231121
241.815887 13.70833
241.830566 14.18519
241.844513 16.33333
241.863342 81.582817
241.897568 38.72728
241.921692 43.28886
241.942627 22.052349
241.956055 46.972599
241.997696 17.111111
242.012344 106.098099
242.05069 27.97681
242.109726 11.00521
242.320877 10.10965
242.368927 4.42803
242.515869 2.680556
242.591721 4.711957
242.69281 20.848181
242.765594 8.840278
243.101242 36.788422
243.13916 395.691986
243.174561 30412.359375
243.238144 19.97349
243.315277 25.279539
243.338898 41.22971
243.367172 57.442581
243.397522 169.022095
243.427505 55.201981
243.453018 122.955902
243.469299 53.031429
243.494461 145.928207
243.516434 48.733479
243.539856 37.041939
243.553467 69.058273
243.597183 26.143709
243.67482 47.604679
243.697495 64.699837
243.728683 25.45833
243.741043 41.65905
243.791519 20.635719
243.80513 58.809139
243.829727 58.523579
243.876953 17.360291
243.921997 48.578281
243.981476 34.05196
244.078659 10.14982
244.10611 37.019321
244.584457 15.52381
244.643875 16.503469
244.769928 5.598684
244.889511 23.62674
244.938461 10.7787
245.041626 15.33412
245.126556 10.09931
245.153183 226.057693
245.388519 15.76136
246.587357 6.25926
246.712067 17.40749
246.776443 5.702587
247.10289 54.26981
247.132599 174.788498
247.209686 22.59968
247.662643 7.480072
247.678955 26.012541
247.693253 15.29412
247.750168 4.003205
247.766602 4.335145
247.810608 7.002451
247.890213 21.72283
247.907471 8.641026
247.969254 6.357143
247.993744 16.706699
248.2995 44.333591
248.509155 2.958333
248.542984 34.628799
248.56781 11.85799
248.621597 14.34409
248.879471 5.001812
249.163422 6023.533203
249.231247 45.746521
249.263794 4.010417
249.315369 50.39587
249.347519 70.095978
249.380264 97.145897
249.396515 35.183529
249.417999 7.107456
249.449921 73.576813
249.481277 12.93333
249.516541 18.58675
249.584702 39.52079
249.630966 15.7619
249.709854 18.002041
249.725388 5.35307
249.76384 11.42455
249.79686 6.708333
249.972748 17.39254
249.99971 8.375
250.061966 23.16522
250.288879 10.0496
250.462601 14.79427
251.041031 3.25
251.246399 7.598684
252.235153 5.136111
253.871185 6.201666
255.720322 6.337963
256.144318 53.511101
257.153168 233.080093
257.190033 124.159698
257.246948 15.34131
257.294861 28.710501
257.331238 39.13665
257.457855 31.49238
257.509216 7.338235
257.559814 12.24537
257.592804 5.177632
257.676727 6.672222
257.704651 1.672619
259.206177 54.278641
259.795563 3.416667
261.107513 28.597521
261.176422 57.037498
261.212555 5.017857
263.562439 9.023809
263.812988 8.775641
263.974884 3.669118
264.466858 2.666667
264.964966 6.668478
265.40686 8.347222
265.429657 94.903313
265.525879 102.815102
265.548553 2.003788
265.567871 7.008333
265.592255 16.507139
265.609436 15.40752
265.633606 35.35936
265.656281 10.35874
265.671967 93.537376
265.7099 16.12015
265.747009 14.13172
265.795227 6.208333
265.809814 31.318701
265.883148 8.335
265.900238 11.89532
265.968231 14.34314
265.996613 6.666667
266.036316 1.6875
266.254272 15.96078
266.281219 15.3375
266.371216 5.840278
266.415924 5.700758
266.843475 7.06586
266.986908 5.095238
267.018799 13.375
267.117615 8.592949
267.133514 10.34405
267.174377 19638.5
267.242004 9.231482
267.264526 87.167778
267.307129 57.17218
267.343475 29.201309
267.371124 38.573471
267.386566 18.4902
267.398315 50.043468
267.423309 46.714062
267.479218 99.903328
267.549042 27.337589
267.567993 95.778343
267.6008 53.45224
