>compound MLS001074870-01!6-O-Methylguanine
>formula C6H7N5O
>ionization [M+H]+
>parentmass 166.070892
#inchi InChI=1S/C6H7N5O/c1-12-5-3-4(9-2-8-3)10-6(7)11-5/h2H,1H3,(H3,7,8,9,10,11)
#inchikey BXJHWYVXLGLDMZ
#Ion_Source LC-ESI
#Instrument qTof
#Compound_Source NIH Pharmacologically Active Library
#PI Dorrestein
#Data_Collector VP/LMS
#Scan -1
#Precursor_MZ 166.076
#ExactMass 165.065
#Charge 1
#CAS_Number N/A
#Pubmed_ID N/A
#Smiles COc1[nH]c(N)nc2ncnc12
#INCHI_AUX N/A
#Library_Class 3
#SpectrumID CCMSLIB00000085584
#IonMode Positive
#UpdateWorkflowName UPDATE-SINGLE-ANNOTATED-BRONZE
#LibraryQualityString Bronze
#TaskID d252d724072548979f1f6f1ced849daf
##Scan# 178
#SpectrumFile p4-C10_GC10_01_18358.mzXML
#LibraryName Pharm_Active_Library.mgf
#MQScore -1
#Organism Pharm_Active_Library
#TIC_Query 0
#RT_Query -1
#MZErrorPPM -1
#SharedPeaks 0
#MassDiff 0
#LibMZ -1
#SpecMZ 166.076
#SpecCharge 0
#internalFilename spec-00000.mgf

>collision 10
45.910126 116.0
55.744644 152.0
58.670849 212.0
59.705936 160.0
60.364422 220.0
63.606205 144.0
64.368805 200.0
67.191925 112.0
67.345367 204.0
68.419441 172.0
68.887787 156.0
68.953873 132.0
71.8815 60.0
74.402298 200.0
74.67379 164.0
77.708656 72.0
79.542267 192.0
80.496544 140.0
85.417671 124.0
86.669373 156.0
88.942757 228.0
92.024803 152.0
93.010704 140.0
93.570107 148.0
94.036598 176.0
95.221481 172.0
95.353592 144.0
96.611267 216.0
96.928444 144.0
98.62883 164.0
101.919174 180.0
103.308281 236.0
105.788956 160.0
105.85038 212.0
107.036255 660.0
108.039818 216.0
108.137573 140.0
108.386078 196.0
109.026016 196.0
110.034256 484.0
110.264893 76.0
110.390648 100.0
110.767372 56.0
111.027267 184.0
112.531799 96.0
112.78952 84.0
114.010315 140.0
116.912369 184.0
117.479027 200.0
119.037361 148.0
121.049133 656.0
121.144257 100.0
121.819908 64.0
121.850662 72.0
122.017693 220.0
122.051361 372.0
124.053322 184.0
131.236771 76.0
132.438812 68.0
133.149796 164.0
133.798233 84.0
134.025955 372.0
134.046082 1396.0
134.215256 80.0
134.291351 84.0
134.480545 44.0
134.826981 60.0
134.930984 216.0
135.036972 320.0
135.045074 208.0
136.031387 296.0
138.932083 172.0
139.068176 132.0
143.446564 136.0
148.6465 172.0
149.045563 2640.0
150.042908 352.0
150.315796 32.0
150.948456 128.0
151.049637 504.0
152.026291 120.0
152.950394 172.0
153.031631 148.0
166.070892 936.0
166.230606 88.0
167.060852 204.0
168.062668 140.0
180.978134 172.0
185.946381 116.0
186.044098 164.0
187.943787 148.0
189.578995 64.0
190.437698 72.0
297.238831 68.0
373.922638 44.0
962.200317 60.0
1041.568115 152.0
1059.151733 192.0
1070.452148 200.0
1105.580322 200.0
1114.884521 148.0
1114.984131 164.0
1131.841431 244.0
1134.400757 192.0
1180.907227 56.0
1195.775024 172.0
1200.397583 136.0
1210.978027 144.0
1222.954956 164.0
1244.39502 100.0
1314.584351 148.0
1350.115845 48.0
1356.280518 168.0
1364.781616 164.0
1369.115845 36.0
1382.677612 156.0
1391.023438 148.0
1403.410278 140.0
1405.245117 132.0
1408.895874 188.0
1412.985229 152.0
1465.916748 152.0
