>compound Sulfamethoxazole
>formula C10H11N3O3S 
>ionization [M+H]+
>parentmass 254.05867
#inchi InChI=1S/C10H11N3O3S/c1-7-6-10(12-16-7)13-17(14,15)9-4-2-8(11)3-5-9/h2-6H,11H2,1H3,(H,12,13)
#inchikey JLKIGFTWXXRPMT
#Ion_Source LC-ESI
#Instrument qTof
#Compound_Source Isolated
#PI Sirenas
#Data_Collector Ed Esquenazi 
#Scan -1
#Precursor_MZ 254.06
#ExactMass 0.0
#Charge 1
#CAS_Number N/A
#Pubmed_ID N/A
#Smiles N/A
#INCHI_AUX N/A
#Library_Class 3
#SpectrumID CCMSLIB00000005387
#IonMode Positive
#UpdateWorkflowName UPDATE-SINGLE-ANNOTATED-BRONZE
#LibraryQualityString Bronze
#TaskID d19310cd93df49b68e9fcbec27720eb5
##Scan# 2
#SpectrumFile Sulfamethoxazole.mgf
#LibraryName fda_library.mgf
#MQScore -1
#Organism fda_library
#TIC_Query 0
#RT_Query -1
#MZErrorPPM -1
#SharedPeaks 0
#MassDiff 0
#LibMZ -1
#SpecMZ 254.06
#SpecCharge 0
#internalFilename spec-00000.mgf

>collision 10
100.058228 124.293701
100.071068 8.337501
100.080803 13.32328
100.165237 15.7902
100.41938 7.6875
100.506554 11.35756
100.625267 10.41667
100.691284 8.291667
101.023399 10.43219
101.215553 6.177631
101.362854 8.41565
101.369873 10.64015
101.517029 13.34286
101.895828 15.69207
103.041245 66.346542
103.089928 7.0
104.046387 24.724541
104.152374 5.208333
104.644585 4.0
105.45578 20.12121
105.630005 12.44907
106.06324 37.530701
106.433105 21.97986
106.457932 8.361112
106.469658 24.724939
106.530029 15.44537
106.576942 4.011905
106.609291 6.201666
106.674217 6.047619
106.772766 3.958333
107.059868 2970.220947
107.101967 8.840278
107.116341 5.335784
107.137947 4.416667
107.198143 41.242458
107.228737 10.74405
107.235214 16.55784
107.246002 5.088768
107.318069 8.0
107.350502 3.669872
107.373329 15.41071
107.382973 6.686403
107.390282 8.698232
107.400864 72.840057
107.411789 8.728536
107.42025 8.833333
107.437111 23.97316
107.452255 111.121498
107.472198 66.355263
107.487518 33.333328
107.4944 29.77844
107.50737 84.708328
107.52356 50.182339
107.549294 91.058746
107.58477 19.63636
107.595016 60.86792
107.604866 22.88587
107.626358 81.168472
107.643166 28.334299
107.655037 31.195101
107.672401 14.57341
107.68985 11.69643
107.70916 24.25066
107.724655 12.78788
107.738655 22.060369
107.747368 9.730159
107.759514 34.890862
107.7798 15.69467
107.805145 10.725
107.822823 36.20742
107.852531 13.68519
107.87027 24.724621
107.880829 6.856061
107.888069 5.347222
107.934868 14.65476
107.989288 35.072632
108.017593 79.334167
108.044655 84796.476562
108.105164 23.33333
108.116028 11.40741
108.174995 9.8
108.188377 7.429762
108.228699 8.7
108.246429 32.05455
108.283897 13.86833
108.352074 69.805817
108.365852 27.58333
108.379852 104.483398
108.413048 3.375
108.430977 178.039597
108.466461 32.610149
108.475655 33.864368
108.484787 33.990742
108.520493 40.408119
108.545204 77.449097
108.571709 131.014496
108.592125 84.781013
108.618744 39.653961
108.644676 14.05518
108.666 12.04167
108.682671 14.76587
108.712723 46.455688
108.71991 8.370614
108.740128 13.37769
108.747887 16.880211
108.762711 17.42029
108.782639 16.33333
108.79361 19.670641
108.835167 9.826755
108.858177 35.18055
108.973419 28.586809
109.048065 718.144897
109.098534 8.340278
109.138367 6.615
109.150093 53.18483
109.182198 8.002451
109.203751 45.71212
109.24411 28.590509
109.263664 26.4098
109.285423 23.23177
109.291359 4.5
109.309425 12.73667
109.371651 7.747549
109.39756 17.355261
109.407349 23.326811
109.451309 17.00333
109.490845 20.89444
109.513298 13.90909
109.638496 8.881667
109.782738 9.423913
109.907539 15.51862
109.921295 9.698232
109.997902 8.035714
110.04351 5.625
110.174561 15.78261
110.286331 14.73214
110.806892 6.747549
111.169273 6.075
111.245613 4.007576
111.451187 4.681667
114.081474 7.720238
114.673164 8.160256
115.266182 13.44444
116.204208 3.333333
116.351845 9.667683
118.052788 161.994095
118.06282 24.260839
118.088203 7.116379
118.311012 11.45833
118.329826 9.116667
118.421219 5.208333
119.059296 315.071289
119.323837 8.11638
119.377953 31.0443
121.075974 453.062103
121.099876 9.573413
121.488281 17.373739
121.893967 6.160088
122.041077 8.005952
122.303513 5.053571
129.045212 79.66954
130.049973 164.115799
130.145996 12.4563
131.060089 634.156982
131.152039 4.774123
131.419296 19.679489
131.470978 10.70614
131.52916 7.300438
131.661438 12.30616
131.670746 10.58854
131.999084 5.414216
132.067871 407.3573
132.250244 7.189394
132.350266 8.755208
132.374588 20.26722
132.446075 5.422101
132.505844 15.58954
133.062485 327.104889
133.072342 260.764587
133.083435 13.70238
133.110153 8.513889
133.166138 5.761905
133.208282 11.63516
133.357681 24.55769
133.585251 14.5375
133.795181 12.00397
134.006348 27.988501
135.015045 37.691669
135.089478 20.001261
140.013168 97.033562
142.037155 32.76907
142.046783 11.78241
142.638412 11.00595
143.060196 76.391037
143.68782 13.66865
143.977936 15.48214
144.065933 74.44915
144.578827 5.054824
144.926208 5.133333
145.074478 216.350204
145.112289 5.408333
145.144318 11.87879
145.201202 10.14969
145.236313 11.28125
145.269913 9.296296
145.328568 8.768939
145.374298 20.851761
145.409943 8.41523
145.449417 7.704545
145.462799 9.776316
145.486023 17.83333
145.565048 9.523809
145.903702 14.46505
146.070572 3944.089111
146.130707 7.013889
146.139114 6.010417
146.169418 22.565001
146.220978 14.30876
146.246796 20.31517
146.272156 19.995831
146.291779 62.55032
146.309662 34.111519
146.338928 48.222309
146.351334 27.48485
146.375381 61.103199
146.391556 7.67803
146.408951 24.48485
146.463593 19.79167
146.501892 16.0
146.544006 10.74405
146.560791 23.14286
146.590622 27.703899
146.61145 6.125
146.661026 15.66779
146.68222 18.12175
146.85495 13.72003
146.880234 11.05333
146.906281 59.897999
146.928528 13.50521
147.009567 10.37061
147.078796 12302.089844
147.11235 7.075
147.130234 60.900902
147.150589 38.753799
147.19751 25.00577
147.210632 30.60784
147.230392 11.47141
147.245117 49.93261
147.260269 21.01754
147.272751 18.68709
147.302155 15.00089
147.320282 64.934441
147.338409 44.228802
147.348602 13.07525
147.417557 17.941151
147.438248 22.23424
147.449051 49.020439
147.469559 9.080882
147.481308 45.805851
147.491882 24.839741
147.500046 18.360291
147.515884 11.5126
147.530075 10.36111
147.564743 51.502979
147.665497 5.748333
147.789642 30.41468
147.883987 10.77976
147.965805 17.345591
148.065308 103.454102
148.139557 16.50729
148.185928 7.377451
148.262177 18.11867
148.274872 11.66786
148.334198 18.3864
148.404907 30.84375
148.458893 8.506945
148.592758 6.005208
148.612411 12.21894
148.680832 10.08333
148.7285 3.36218
148.838699 27.00765
148.855804 3.677083
149.191299 7.789216
151.035675 20.56214
152.017532 26.000681
153.343704 17.125
153.798538 12.45833
154.072159 15.28571
154.854065 29.575001
155.059128 14.15428
155.083389 11.82315
155.100739 14.09643
155.123016 61.825039
155.134567 8.333333
155.145142 123.913597
155.176498 76.79805
155.201981 63.77652
155.21228 20.36458
155.222488 46.626499
155.236206 32.41629
155.250427 24.306841
155.2603 37.44355
155.272781 48.376572
155.291183 64.537491
155.299271 13.0
155.31723 10.74167
155.330048 87.608398
155.346985 15.75512
155.364304 5.668104
155.384201 33.286171
155.407135 109.048401
155.439117 38.684719
155.451004 12.77083
155.478561 33.306129
155.52803 14.89352
155.536072 15.26833
155.586426 46.454239
155.609406 10.79167
155.696808 25.156481
155.748779 15.25
155.845444 26.31155
155.864136 16.463539
155.896713 23.1201
155.921936 18.961599
155.950729 56.77417
155.983963 180.041107
156.011627 78188.726562
156.063248 36.001369
156.110931 18.67647
156.158859 4.388158
156.186035 23.24658
156.24382 13.61364
156.353424 32.058109
156.379639 39.08202
156.407684 26.688789
156.426834 143.284607
156.451019 133.123901
156.469223 57.383469
156.498657 42.52792
156.519836 68.373611
156.532761 37.568352
156.550705 28.991091
156.562759 22.613779
156.594574 107.877998
156.620819 34.544601
156.646683 67.221512
156.671112 93.022507
156.682114 31.882429
156.691132 15.18534
156.703079 25.00079
156.712585 22.667219
156.749191 40.07885
156.759369 17.09918
156.787796 29.95467
156.806702 10.98994
156.82579 5.041667
157.013031 466.613708
157.067291 17.296431
157.104599 39.834721
157.14212 36.8237
157.235367 21.67651
157.253891 27.8848
157.273758 5.001544
157.324738 12.30833
157.495987 20.66231
157.547684 10.04167
157.759995 31.396601
157.828506 15.88955
158.033813 7.009615
158.166046 6.98077
158.191299 10.69823
158.221924 7.671297
158.235519 26.75
158.29689 8.856061
158.449554 9.449074
158.577057 21.530741
158.664612 9.858334
159.000702 122.348701
159.050751 17.33452
159.078903 123.261002
159.159592 10.54672
159.172943 59.68536
159.198181 50.274509
159.257614 17.054501
159.309601 6.3
159.334961 11.98039
159.367859 23.864611
159.389496 15.42803
159.410034 9.005555
159.439087 14.70833
159.462814 7.605556
159.478912 6.669445
159.489395 23.739731
159.625107 10.33796
159.805588 9.240384
160.031769 21.88032
160.062714 54.186779
160.08667 13336.620117
160.141418 135.953995
160.157639 14.00962
160.199478 31.281879
160.218307 63.527569
160.248474 11.25
160.259918 35.0425
160.275558 38.361012
160.286072 36.94165
160.335129 18.03413
160.364624 26.98727
160.382538 41.034531
160.417465 11.6674
160.427734 20.197069
160.446396 43.810612
160.46373 33.081989
160.48851 8.416667
160.508957 8.966666
160.518829 6.840517
160.534042 18.346741
160.547913 19.091209
160.585327 32.78014
160.612213 16.5098
160.655533 17.64912
160.727814 12.29657
160.739441 7.656609
160.906937 6.702587
160.977631 19.51577
161.001587 1206.762939
161.035538 26.441669
161.072174 185.948196
161.313217 12.41987
161.457504 20.93996
161.473785 12.00119
161.560837 12.78241
161.607513 7.013889
161.649536 8.081897
161.967789 11.68421
162.304459 14.41667
162.33548 13.52447
163.08609 229.475098
167.029724 59.584702
170.071548 18.33404
172.046509 5.939394
172.083984 42.264549
172.342102 3.782408
172.608017 6.201666
173.058228 299.016815
173.178192 16.703951
173.249374 24.346951
173.642487 12.46944
173.729813 6.98077
174.079025 83.021629
175.020782 14.015
175.08493 71.345573
175.113235 3.42803
175.996521 10.14815
176.02713 769.39209
176.166763 3.815476
176.29306 5.7
176.348495 12.86613
176.951736 61.4767
177.005295 33.021049
177.279938 8.45
187.058044 19.054211
187.128494 7.564815
187.153595 6.047619
187.41568 6.371212
187.853485 6.403736
188.081146 3844.584961
188.125443 10.3869
188.139709 34.30315
188.156525 14.79722
188.18605 20.75
188.201736 40.49556
188.242203 38.603661
188.283615 14.65878
188.316284 14.71605
188.331375 18.54423
188.365448 9.777778
188.395599 12.14969
188.431015 21.09646
188.46907 15.01389
188.52269 8.341666
188.552048 30.34524
188.626389 7.025
188.669724 6.0
188.770309 6.880952
188.848282 17.68412
188.952362 14.4518
189.041641 10.11265
189.478165 7.429762
189.612274 5.334677
189.9543 12.11484
190.096085 734.433289
190.134781 1.666667
190.245132 3.333333
190.289612 11.20119
190.331726 15.57445
190.350708 8.802928
190.522247 11.80278
190.715668 4.666667
191.259003 10.81071
192.241989 20.65766
192.690536 9.003205
193.024185 16.68519
193.285172 14.64031
194.039078 1012.799988
194.098389 6.0625
194.218948 13.22715
194.234924 15.5228
194.472168 11.14881
234.719818 11.57407
236.04863 52.95969
236.373611 6.868333
252.747604 32.840111
252.835434 5.371913
253.001404 12.67402
253.516403 15.25
254.05867 2900.37207
254.154221 22.857071
254.191376 30.414351
254.237503 12.00397
254.286926 10.13889
254.309082 9.267858
254.36647 21.372
254.400391 19.832701
254.469955 5.160714
254.529327 27.217489
254.552841 5.680555
254.582718 15.58681
254.636536 19.30769
254.83638 14.53186
255.119629 5.335526
255.175583 7.133333
255.274017 4.053571
257.113678 7.111111
258.078735 5.335526
281.149139 21.963539
310.383881 16.2124
470.171509 21.30854
531.860535 15.88955
790.594788 12.16667
1044.879883 19.510969
1123.97522 4.387821
1144.038818 17.025841
1171.45459 15.67867
