>compound Lopinavir
>formula C37H48N4O5 
>ionization [M+H]+
>parentmass 629.370605
#inchi InChI=1S/C37H48N4O5/c1-25(2)34(41-20-12-19-38-37(41)45)36(44)39-30(21-28-15-7-5-8-16-28)23-32(42)31(22-29-17-9-6-10-18-29)40-33(43)24-46-35-26(3)13-11-14-27(35)4/h5-11,13-18,25,30-32,34,42H,12,19-24H2,1-4H3,(H,38,45)(H,39,44)(H,40,43)/t30-,31-,32-,34-/m0/s1
#inchikey KJHKTHWMRKYKJE
#Ion_Source LC-ESI
#Instrument qTof
#Compound_Source Isolated
#PI Sirenas
#Data_Collector Ed Esquenazi 
#Scan -1
#Precursor_MZ 629.371
#ExactMass 0.0
#Charge 1
#CAS_Number N/A
#Pubmed_ID N/A
#Smiles N/A
#INCHI_AUX N/A
#Library_Class 3
#SpectrumID CCMSLIB00000006305
#IonMode Positive
#UpdateWorkflowName UPDATE-SINGLE-ANNOTATED-BRONZE
#LibraryQualityString Bronze
#TaskID d19310cd93df49b68e9fcbec27720eb5
##Scan# 1
#SpectrumFile Lopinavir.mgf
#LibraryName fda_library.mgf
#MQScore -1
#Organism fda_library
#TIC_Query 0
#RT_Query -1
#MZErrorPPM -1
#SharedPeaks 0
#MassDiff 0
#LibMZ -1
#SpecMZ 629.371
#SpecCharge 0
#internalFilename spec-00000.mgf

>collision 10
100.074242 21.161619
101.071884 39.001511
103.055099 131.866592
105.3909 9.88469
112.114258 82.936394
113.070526 71.974419
117.065681 19.80064
117.717346 7.736842
119.507179 26.677349
119.547493 8.463542
119.624695 24.116671
120.080498 3078.2771
120.111374 6.541667
120.126411 18.3592
120.137741 2.708333
120.203537 21.067341
120.22287 12.11111
120.252213 7.721847
120.269699 7.095238
120.305641 12.16376
120.378136 1.666667
120.584343 4.694444
120.680275 5.341667
120.748726 9.688597
120.901627 11.0
121.52594 12.00417
129.07074 60.00095
131.084061 58.532928
132.079041 130.577194
132.115402 3.266667
135.077011 63.544941
135.388138 10.36594
139.040405 23.408331
146.870728 26.13233
153.983322 3.020833
154.205734 16.816311
154.259583 3.736111
154.289825 20.024599
154.324112 13.35897
154.415329 12.4375
154.53978 10.55254
154.54921 8.768939
154.748184 11.6875
155.03302 23.987181
155.117722 9789.5
155.169067 94.195053
155.185898 18.6796
155.194244 11.40374
155.207291 10.3344
155.216843 34.784279
155.231125 12.16667
155.240265 8.083333
155.288315 29.935671
155.302429 17.02541
155.328674 12.04537
155.350525 20.013889
155.382629 67.187286
155.412445 21.92708
155.492569 26.70833
155.508621 32.796902
155.545532 12.0947
155.562881 9.03858
155.575912 7.348333
155.632324 12.43011
155.649872 29.23461
155.683975 20.995649
155.698715 9.347222
155.799423 24.460979
155.827164 8.440789
155.905853 14.34783
156.033066 20.37376
156.113342 88.739769
156.466721 7.757883
156.741013 10.32143
157.377548 11.00093
158.252716 7.935
158.317078 19.379311
162.087936 71.692307
167.084625 11.11638
172.107346 59.813759
172.808075 15.35753
173.079758 28.970711
174.473694 14.56061
175.715134 9.62963
179.838593 7.666667
180.101486 295.904907
180.922577 11.81037
181.475159 8.681159
181.878143 11.60119
181.930038 12.7971
181.944122 9.044118
181.95842 55.536018
181.984161 32.666672
182.020599 137.184799
182.047348 12.76587
182.074234 32.189541
182.094894 4.490385
182.118958 105.381302
182.152466 67.364769
182.170959 27.393049
182.189636 93.672363
182.210098 34.304852
182.232147 128.329803
182.264969 127.154701
182.280548 16.70833
182.289917 13.04741
182.300262 17.218019
182.321381 28.48177
182.33078 29.119591
182.358139 40.53804
182.376083 12.46944
182.398209 18.125
182.440414 60.231621
182.470398 7.714285
182.497513 11.43056
182.66748 20.34074
182.733505 10.40895
182.808563 10.17754
182.860474 24.382721
182.871002 78.619377
182.907379 10.32143
182.92688 11.42188
183.047348 39.235191
183.072739 208.743698
183.112793 84440.882812
183.170731 133.580994
183.301376 39.586349
183.33963 26.57992
183.359589 27.551571
183.510406 105.639503
183.520187 73.720993
183.541748 98.242523
183.555862 43.807129
183.592911 49.791901
183.618225 63.43602
183.630783 69.273338
183.655487 122.281197
183.705658 28.008129
183.715149 8.791667
183.736954 39.534801
183.74704 41.078838
183.766006 44.560268
183.807983 40.653591
183.818954 51.82412
183.84877 38.13649
183.882645 29.873289
183.901047 55.59045
183.942337 13.02206
183.953003 12.32545
183.963165 34.709179
183.990021 26.49828
184.183167 87.525803
184.194748 13.67738
184.372803 17.336309
184.41832 17.28759
184.439667 9.0
184.579941 14.74405
184.700745 55.28656
184.723251 8.334459
184.784821 3.671296
184.950272 25.347481
185.087509 10.01894
185.130142 21.000589
185.480545 4.333333
186.065414 8.401667
186.427841 17.013889
186.941772 12.81341
187.126312 14.69509
187.204407 11.40221
187.851562 3.555556
188.003723 25.271509
188.157623 19.11867
190.004089 10.0
192.09549 9.35307
194.509354 7.333333
199.123962 80.243477
205.041138 19.5
233.131424 40.001572
233.541748 5.88587
248.138565 40.30682
248.508118 19.037161
248.68013 18.145081
248.851578 23.892611
250.12384 19.97349
250.158554 233.663696
251.034012 8.66821
262.162598 34.824242
263.164825 25.051279
280.566467 13.7129
282.144928 20.41667
282.179138 16.88032
290.346558 7.335784
308.744568 3.094697
308.781433 9.204166
310.103302 3.355392
310.179779 1028.176025
310.283447 33.361301
310.323944 8.102564
310.357666 10.08333
310.41156 45.87925
310.575195 17.96545
310.680298 10.16667
310.861847 13.85417
311.317474 7.333333
311.495514 12.36029
312.158966 15.34483
337.714752 11.37778
343.854248 8.109649
346.621643 19.78763
379.091827 18.91848
384.230347 190.3909
385.671356 21.156481
407.020111 11.99212
412.2276 552.743225
412.442352 7.714285
412.891083 8.84375
413.085052 10.03
413.537689 8.333333
421.493011 34.061871
426.459351 21.86821
426.506409 67.057159
426.535095 9.352941
426.557556 10.40833
426.603668 50.3433
426.641876 9.027778
426.685577 48.35342
426.735107 32.28289
426.775055 70.52198
426.86853 91.203682
426.937531 20.335649
426.980652 9.204166
427.045319 14.67539
427.164398 18.3787
427.210724 9.376773
427.253998 16.12002
427.707214 12.72854
428.016907 52.205132
428.052429 14.68221
428.299561 21.11458
428.642639 8.748334
429.193268 27.23457
429.25354 16880.210938
429.349426 6.964285
429.389008 52.728779
429.435211 34.810009
429.454926 32.832981
429.488312 23.24605
429.505798 83.411079
429.572968 85.997093
429.642426 78.398499
429.666168 27.8925
429.696472 72.920647
429.730988 33.94545
429.772461 95.662163
429.831573 92.238007
429.876648 54.039291
429.919708 85.261833
429.964661 107.889999
430.03064 68.518806
430.092468 41.948631
430.121429 73.885246
430.312103 50.146729
430.351013 11.72436
430.514923 4.721154
430.669067 24.004749
430.815125 58.724258
431.441315 6.427083
431.711121 3.973485
431.744202 10.05556
431.941071 35.093349
433.127899 13.42222
433.170746 10.68182
435.35611 11.50521
437.217499 14.8
440.612579 25.073999
440.960022 10.83681
441.361328 16.4
442.00528 7.666667
442.132568 12.89302
443.110413 9.001666
443.974457 9.010417
444.13623 9.694819
444.215546 19.046
444.244751 19.16667
444.268951 90.665573
444.305847 112.967796
444.334503 30.03409
444.351166 250.081802
444.399994 260.871887
444.438721 203.828201
444.485901 181.144104
444.524872 301.581696
444.549042 108.499496
444.576965 25.26882
444.633057 206.576294
444.685089 119.070099
444.710327 88.919456
444.741241 88.716164
444.817993 343.56601
444.935638 192.985001
444.965057 6.005952
445.023621 12.87083
445.075897 58.226849
445.117676 131.9608
445.168457 50.231701
445.244202 99.253922
445.414917 116.809402
445.466522 72.401207
445.59613 113.766998
445.861206 95.859573
445.977692 25.33415
446.014587 26.40056
446.06427 69.990402
446.170135 66.083633
446.210205 504.105103
446.65448 10.42976
446.773712 20.576469
446.801727 9.980392
446.83194 25.004629
446.962097 38.334179
447.027344 57.536949
447.147644 136.548904
447.264954 166603.796875
447.562103 62.830891
447.62265 22.334101
447.770721 41.882881
447.824799 36.09185
447.885834 281.600311
447.909119 76.323502
447.94342 220.289902
448.009949 563.22052
448.079437 174.981201
448.127136 311.741302
448.355133 400.538208
448.440704 183.382706
448.469788 20.685289
448.550751 56.60265
448.661713 162.943802
448.755981 115.594002
448.803558 140.607895
448.973083 50.225922
449.042419 234.740204
449.091431 7.35
449.237274 17.241159
449.408508 9.666667
449.57785 101.686401
449.632507 76.398743
449.725891 71.236168
449.862396 87.380257
450.109406 7.668104
450.405396 25.33338
450.673737 10.00595
450.70047 8.337121
450.788696 14.41598
450.937042 34.584511
450.988495 4.440476
451.222595 25.05357
451.246704 9.560185
451.270355 7.598684
451.319489 3.555556
451.344971 27.471741
451.626373 15.08333
451.65329 7.428572
451.868011 39.374321
451.897369 21.19758
451.987427 3.926282
452.030426 9.469594
452.104401 16.00082
452.138672 16.25379
452.255646 26.43598
452.466919 12.01667
452.511322 3.335526
452.711151 10.125
452.838593 28.74118
453.141632 19.3393
453.278442 19.075399
453.607147 11.67262
453.71109 17.361111
453.7565 7.939394
453.896301 31.355009
454.072968 3.518939
454.496796 7.366936
455.045807 9.681159
456.137726 11.89387
456.389587 8.34375
457.215363 20.36842
458.467651 9.711021
459.240997 9.681666
459.762909 7.783046
460.076263 7.019608
460.173279 13.33333
461.62973 10.68314
461.966064 10.17175
462.220459 7.576149
462.512085 8.053572
462.594543 11.03592
465.73996 6.15
488.945587 2.0
516.325378 4.083333
518.360596 8.008333
545.623901 8.001016
587.13031 41.314949
607.065796 40.52969
607.168945 57.143101
607.270203 31.11833
607.370972 13.375
607.403259 97.188301
607.478027 77.928627
607.620911 10.625
607.714783 50.799549
607.754028 70.509743
607.830627 94.678741
608.099792 9.547619
608.137512 15.76136
608.383484 24.25671
608.515808 13.82675
608.576172 26.387899
608.972046 36.76157
609.110657 19.92803
609.791626 18.564831
609.858154 7.337963
609.941467 27.634239
610.004761 26.867861
610.135559 10.47222
610.282593 42.799999
610.745544 8.075618
611.359619 25021.789062
611.447632 23.0819
611.506592 12.58333
611.596008 194.925507
611.658142 161.984802
611.70752 125.112801
611.754272 176.071701
611.79187 256.736389
611.855347 63.0252
611.885864 65.732857
611.927734 79.538208
611.977295 40.64529
612.009583 157.806305
612.044556 25.423731
612.092041 65.464546
612.119019 34.549389
612.460938 152.121002
612.570923 60.383411
612.866943 68.966583
612.982727 34.442589
613.236938 67.852478
613.318787 12.67539
614.030762 10.77564
614.305725 25.79167
614.422119 7.429762
614.473816 12.33974
614.506592 20.5375
615.733521 13.64477
616.050781 20.85577
617.504456 12.4662
618.551331 11.5126
619.208679 5.444445
619.988037 7.383333
620.214294 7.779321
620.889221 6.694445
622.398438 22.82645
623.292725 7.805555
624.573975 11.88005
624.693115 8.518678
624.891907 7.711957
624.952942 32.91959
625.023193 11.63516
625.076111 32.130192
625.13092 116.637703
625.19873 203.429001
625.243347 208.931793
625.308838 180.155106
625.356262 185.587097
625.404175 179.886002
625.486389 27.052349
625.52301 195.660507
625.58374 151.080902
625.66394 137.270798
625.703491 26.939211
625.891724 10.89382
625.960693 32.44445
626.270569 81.422684
626.489685 50.333469
626.741455 21.41176
626.818542 20.57589
626.850525 12.22685
626.901672 36.749512
626.960999 57.221939
627.062744 47.566891
627.122498 17.90476
627.372803 16.0
627.62561 87.837196
627.720947 39.840839
627.800049 10.41667
627.842651 10.08167
627.985291 22.508751
628.196167 26.646601
628.279907 16.271509
628.411194 29.852369
628.933472 4.763889
629.038208 10.78667
629.196594 349.9328
629.263733 454.912903
629.370605 91561.703125
629.494385 59.490391
629.55426 26.093889
629.652283 35.557098
629.822998 44.716461
629.888794 69.41346
629.944153 118.204002
629.974976 36.619499
630.02356 23.698231
630.09668 207.987701
630.15387 208.100403
630.290161 116.068703
630.518066 195.348495
630.546082 24.585621
630.824585 61.240059
630.888672 135.879593
630.990967 109.559303
631.051147 87.1287
631.117981 49.28606
631.431519 161.320007
631.59198 7.46412
631.675598 79.309151
631.73407 90.729317
631.854492 43.23362
632.012756 57.305199
632.271118 79.821114
632.331909 21.74238
632.603088 19.11694
632.918152 6.666667
633.458923 23.70064
633.565979 22.540371
633.641418 29.255039
633.814514 6.704545
634.239075 39.894451
634.280823 31.90946
634.34552 8.753205
634.40686 10.00397
634.48938 9.108974
634.564331 21.706699
635.388611 18.824039
635.476318 9.388514
635.581421 23.669359
636.322083 20.3346
636.490662 19.27083
636.924194 11.07181
637.099792 18.66667
637.134338 10.0625
638.189087 7.677381
638.681335 11.05921
639.711182 17.70833
640.618225 19.225941
641.072144 12.92857
641.860535 8.208333
643.111145 9.027778
644.196899 4.684524
645.636902 12.60682
647.662781 8.1875
649.168762 8.920045
649.482605 10.17339
668.473511 8.789634
688.23468 22.00877
689.649902 10.00417
798.042114 9.320652
867.079468 11.375
974.066772 30.022221
1010.467896 7.916667
1079.619751 51.637371
