>compound Ramipril
>formula C23H32N2O5 
>ionization [M+H]+
>parentmass 417.239
#inchi InChI=1S/C23H32N2O5/c1-3-30-23(29)18(13-12-16-8-5-4-6-9-16)24-15(2)21(26)25-19-11-7-10-17(19)14-20(25)22(27)28/h4-6,8-9,15,17-20,24H,3,7,10-14H2,1-2H3,(H,27,28)/t15-,17-,18-,19-,20-/m0/s1
#inchikey HDACQVRGBOVJII
#Ion_Source LC-ESI
#Instrument qTof
#Compound_Source Isolated
#PI Sirenas
#Data_Collector Ed Esquenazi 
#Scan -1
#Precursor_MZ 417.239
#ExactMass 0.0
#Charge 1
#CAS_Number N/A
#Pubmed_ID N/A
#Smiles N/A
#INCHI_AUX N/A
#Library_Class 3
#SpectrumID CCMSLIB00000004283
#IonMode Positive
#UpdateWorkflowName UPDATE-SINGLE-ANNOTATED-BRONZE
#LibraryQualityString Bronze
#TaskID d19310cd93df49b68e9fcbec27720eb5
##Scan# 12
#SpectrumFile Ramipril.mgf
#LibraryName fda_library.mgf
#MQScore -1
#Organism fda_library
#TIC_Query 0
#RT_Query -1
#MZErrorPPM -1
#SharedPeaks 0
#MassDiff 0
#LibMZ -1
#SpecMZ 417.239
#SpecCharge 0
#internalFilename spec-00000.mgf

>collision 10
101.506592 6.041667
101.521523 6.988215
101.550774 7.013355
101.558937 8.0125
101.574196 11.48438
101.583839 6.679167
101.615463 13.6995
101.632935 12.3337
101.656746 25.27499
101.692566 6.170656
101.710106 6.208333
101.738113 20.50926
101.78582 3.880953
101.794327 2.166667
101.801376 2.505952
101.839966 2.520833
101.858665 5.320513
101.86454 5.000366
101.881409 10.36578
101.918869 24.042471
101.966881 6.449253
102.004913 4.034091
102.033974 3.595109
102.055092 12065.820312
102.100853 15.00189
102.113167 17.144051
102.140205 9.850396
102.171036 27.11237
102.179932 9.774857
102.20211 12.57491
102.211754 44.970291
102.23587 24.74984
102.245544 38.815929
102.267357 16.789221
102.274529 14.9072
102.292107 18.05645
102.300072 11.34028
102.315872 2.517045
102.322197 10.24798
102.335297 28.955009
102.34465 34.523781
102.363739 5.056018
102.376968 9.09341
102.384911 3.802778
102.3993 39.666
102.410271 13.17385
102.437668 3.334052
102.462036 13.54952
102.46936 6.570402
102.475464 4.354167
102.490486 1.5
102.503136 13.06636
102.51519 5.947662
102.523247 19.12948
102.542427 12.18969
102.560951 6.647467
102.570992 7.531746
102.611076 7.278241
102.684669 11.68314
102.701805 6.133333
102.723946 6.629902
103.012474 8.000425
103.030151 7.711957
103.056999 50.27224
103.094391 5.55787
103.224365 2.722222
103.358719 5.121212
103.369331 4.173913
103.429047 6.440025
104.259026 4.011905
104.294548 4.539244
104.504272 4.166667
104.888725 4.081317
105.069801 661.747986
105.113228 4.229167
105.119881 5.548611
105.15992 1.170833
105.248001 3.691468
105.273949 8.080808
105.502434 4.175
105.52375 3.518518
105.556038 6.458333
105.656136 2.179167
105.674019 4.620192
105.906616 7.020127
106.139488 5.183435
108.0802 38.923611
108.102455 1.908333
108.277466 10.17917
109.102829 37.779209
109.146004 4.836538
109.313675 9.246678
109.531586 7.167092
109.581329 6.000595
109.63855 12.67343
109.702774 3.833796
109.761047 3.907738
109.768341 6.167385
109.925156 8.0
109.990814 4.054824
110.096497 4801.425781
110.142853 14.75994
110.153214 13.32793
110.173203 9.847222
110.192207 32.3465
110.213562 6.388158
110.228004 3.85
110.26461 9.338542
110.274658 18.418011
110.301201 6.58188
110.308716 13.13863
110.334068 10.44293
110.348587 6.834105
110.363159 1.502976
110.372421 3.9375
110.38887 5.351191
110.402649 5.667298
110.416145 9.500564
110.445396 9.966968
110.480736 8.615942
110.497948 2.981618
110.520668 16.659081
110.546097 6.333654
110.557121 5.460318
110.620934 10.63076
111.078941 24.54146
111.092072 41.84396
111.099609 63.060879
111.117851 14.20939
111.161316 10.0173
111.179787 3.66723
111.462418 6.343161
111.534851 16.7815
111.570206 1.592803
114.915543 5.411574
115.05397 627.291321
115.113281 2.027412
115.187943 6.335
115.214859 8.0
115.314934 6.835417
115.704018 8.020061
116.156929 8.016305
116.391113 10.54449
116.398308 10.01796
116.409332 3.779166
116.418358 10.4
116.428223 13.19157
116.435524 7.574405
116.452301 8.030303
116.460739 13.84833
116.474304 14.36667
116.48391 70.191597
116.511192 71.062714
116.526337 26.635349
116.544571 32.183361
116.557915 68.123039
116.587456 43.874401
116.615982 52.817879
116.628433 21.02759
116.655823 37.353241
116.679268 11.30105
116.686279 5.171027
116.704941 11.98878
116.715408 3.401389
116.7276 14.00198
116.750832 30.635321
116.761879 12.1976
116.768974 6.925287
116.780342 20.122181
116.795624 6.41832
116.818596 17.20513
116.826698 7.653986
116.85994 20.407169
116.881447 7.381548
116.912201 8.554825
116.918983 4.25
116.945564 7.002083
116.960823 12.57302
116.967545 6.7625
116.998558 5.052632
117.070137 64127.238281
117.283447 12.74374
117.304543 30.27976
117.316872 23.13221
117.33847 14.2701
117.391876 36.998211
117.402924 78.776443
117.419312 8.107732
117.429649 37.849861
117.442917 35.987869
117.460907 13.74028
117.467384 54.374908
117.494446 54.08894
117.514565 33.6828
117.523888 18.11598
117.53067 16.352909
117.543167 19.66815
117.562737 42.434521
117.579933 28.53973
117.58886 14.63361
117.604904 2.560049
117.613388 30.67461
117.623192 25.12685
117.633507 13.56806
117.639656 29.75551
117.653755 13.05774
117.661613 4.708333
117.66909 41.23679
117.679344 6.493421
117.687729 8.233334
117.703232 54.107052
117.711487 12.50718
117.73745 39.435169
117.76445 4.466912
117.779984 10.01458
117.804619 13.55556
117.835983 8.069445
117.846725 12.44315
117.87532 6.205883
117.922295 28.821039
118.116119 12.7381
118.131683 19.89941
118.144859 9.487644
118.172882 9.609012
118.203896 11.38294
118.216995 8.666924
118.251625 6.370833
118.302666 23.62077
118.334099 4.413462
118.356995 22.94912
118.587051 9.920027
118.615471 7.930871
118.810486 4.389881
118.870155 5.333965
118.899078 15.16597
118.953186 5.647059
118.970932 4.069444
119.168312 3.338691
119.221489 7.025641
119.234787 4.625
119.473579 3.826993
119.541504 7.779321
119.609917 4.556327
119.676498 3.520833
119.830025 4.836309
119.856705 7.34
119.880066 6.501984
120.40799 3.506944
120.448616 5.743806
120.486603 3.401389
120.534561 3.729167
120.646378 5.566431
120.971397 1.166667
121.055595 8.842709
121.064262 49.678268
121.812088 3.826993
122.096397 28.345449
122.172066 5.704166
123.197632 1.851852
124.804108 3.953373
127.053688 20.1875
127.247505 6.3125
128.061447 282.093811
128.096024 10.45062
128.111328 2.501389
128.28923 3.609069
128.397964 5.255435
129.199707 5.081644
129.310776 6.688726
129.317825 5.902778
129.340179 3.080044
129.37886 15.92917
129.389999 32.22353
129.402298 18.435049
129.417099 8.857142
129.424927 8.166667
129.437469 11.22917
129.444626 8.041667
129.459442 13.55556
129.472794 77.699142
129.480118 8.039245
129.500778 3.685606
129.510086 49.92371
129.528137 16.227631
129.534637 32.23674
129.551773 28.38139
129.563278 12.8588
129.580933 25.788111
129.600616 4.333333
129.613129 14.14632
129.628738 14.58715
129.648468 12.79993
129.663635 5.095833
129.670456 6.167439
129.682083 6.717803
129.698288 8.760417
129.716782 7.428452
129.737976 6.633333
129.761185 15.06921
129.769928 6.001984
129.79715 4.181818
129.817444 8.238095
129.856689 5.065217
129.91832 25.05867
129.958923 14.06124
129.977142 7.969477
129.985229 4.297619
130.017914 8.061769
130.086243 36845.148438
130.147003 85.105408
130.174957 14.52174
130.193726 16.33889
130.235184 22.283421
130.275055 16.754061
130.309738 54.83009
130.322983 11.89637
130.351105 22.96839
130.365143 40.775211
130.414017 43.303459
130.444016 61.067551
130.453629 18.868071
130.480835 10.93972
130.48819 2.8375
130.511673 31.539591
130.525055 54.06028
130.558258 50.05407
130.574966 8.7116
130.592331 23.120001
130.605759 21.31743
130.638031 46.810181
130.667923 16.03961
130.692368 14.28097
130.702225 7.891958
130.722504 21.75449
130.753433 15.36944
130.767059 32.219688
130.833664 9.039134
130.869507 7.503677
130.886002 9.026786
130.893463 5.502778
130.929504 17.272579
130.963501 20.2215
131.044876 4.009868
131.128387 4.166667
131.165421 14.01687
131.291534 10.84776
131.391357 8.34058
131.447464 6.211957
131.492386 9.009137
131.72052 20.524139
131.746719 9.69724
131.790771 5.602134
131.870407 4.333333
131.881912 4.540948
132.033783 7.638888
132.058685 3.65308
132.079437 32.97995
132.490494 7.10947
132.642563 3.87037
132.666595 3.505357
132.76886 12.56427
132.911148 8.580358
133.061996 124.787399
133.204086 5.015625
133.22818 3.006466
133.309265 3.80303
133.31662 7.242816
133.332535 9.345834
133.34465 6.000484
133.35318 11.21013
133.361588 2.092803
133.379333 17.11606
133.392838 13.67388
133.409302 5.729167
133.420959 11.50034
133.441177 10.93254
133.47377 35.62672
133.498077 7.779167
133.50647 13.87956
133.517456 3.391523
133.523758 15.58055
133.541321 19.83345
133.565872 40.69276
133.577759 8.209086
133.618332 8.022223
133.630981 23.495649
133.64209 5.369238
133.658371 8.540013
133.674377 7.225291
133.70285 21.340481
133.730988 4.527244
133.742661 2.691468
133.794952 2.014423
133.807159 4.627604
133.855194 29.986589
133.888123 13.58601
133.911087 7.860577
133.935745 8.515
134.096405 16990.310547
134.143906 22.14583
134.181824 6.306159
134.219849 23.484051
134.228836 45.259869
134.240173 42.20314
134.256851 3.875
134.274246 3.833841
134.281479 65.476761
134.293472 8.689311
134.30632 11.56088
134.328094 60.965199
134.345047 29.508619
134.364975 46.739552
134.39183 40.614159
134.423004 41.240379
134.434601 35.840599
134.452621 11.9399
134.472946 10.59477
134.501038 36.11557
134.519165 25.56745
134.544434 31.599951
134.578796 10.98155
134.603775 20.87834
134.613495 10.70673
134.629242 8.008828
134.641113 24.97776
134.653442 7.170076
134.673111 6.195652
134.685669 33.928539
134.755539 9.205258
134.839081 33.71838
134.892532 24.55652
135.031509 21.576639
135.058868 12.40935
135.078766 66.300957
135.166702 5.380952
135.17981 18.00498
135.252518 8.786765
135.449905 5.004808
135.47084 11.19855
135.604279 11.65522
135.823654 2.14881
135.850281 10.91465
135.996735 9.043403
136.059097 4.713362
136.244644 8.313611
136.297485 7.720052
136.398987 6.983948
136.516846 6.001437
136.661652 6.533333
137.180237 9.02558
137.535126 4.714881
138.090942 660.988708
138.162277 8.250833
138.203201 4.591961
138.266449 4.377604
138.279419 15.30753
138.29689 4.568056
138.388931 5.840909
138.403 16.177059
138.454422 6.838542
138.495361 2.0
138.663269 4.217803
138.726257 3.504167
138.745331 6.752541
138.777802 6.704166
139.071869 3.444444
141.068817 10.26955
142.341507 2.0
142.624344 6.653409
143.084839 390.168213
143.368607 6.16713
143.385193 5.049603
143.439362 3.581317
143.476471 10.7328
143.532394 3.351293
143.547714 6.88436
143.852142 5.371913
144.080612 788.541626
144.156921 7.848485
144.211349 4.512703
144.348602 4.197304
144.399261 5.622874
144.438644 4.066123
145.063141 105.362701
145.098846 15.26127
145.408432 8.869253
146.106857 22.297529
147.079437 8.398026
147.242645 4.1875
153.074402 15.375
154.086243 131.4189
154.122009 28.446051
154.252213 3.185185
154.389343 11.27614
155.100021 3.041667
155.170914 3.826993
155.195145 16.719339
155.210892 21.857109
155.251846 2.844445
155.268646 1.8375
155.278 3.828305
155.288727 10.25
155.316895 6.801667
155.360352 5.208333
155.381912 5.695269
155.390045 7.689394
155.403595 5.480072
155.473221 3.860746
155.488235 15.04274
155.517105 39.762951
155.60434 2.575
155.811722 3.490385
155.91423 6.213362
156.101608 7743.991211
156.154602 106.231598
156.198242 6.128103
156.241699 5.480183
156.255295 4.540948
156.279083 28.24976
156.297623 30.437941
156.331131 9.305357
156.352905 21.51074
156.361328 1.791667
156.380234 11.04489
156.394989 4.722994
156.415573 29.71492
156.441818 5.640625
156.458694 10.54167
156.53331 4.967262
156.554947 4.500906
156.564957 26.65534
156.592087 24.3832
156.611755 38.37112
156.627838 22.122181
156.663849 11.00041
156.697327 15.73992
156.732468 14.5728
156.74704 6.927536
156.786011 19.018641
156.88356 6.127451
156.938263 3.841486
157.815475 1.833333
158.148544 21.241541
158.440338 4.9
158.611389 4.3075
158.787186 9.676536
158.910553 6.556019
158.918732 4.5
159.072266 3.8625
159.106079 5.375
159.120529 2.14881
159.130768 5.833929
159.142532 20.667231
159.153412 33.419449
159.179321 11.79257
159.187744 18.029169
159.207947 5.6875
159.217331 20.965429
159.234268 29.814711
159.250595 17.71771
159.273834 42.890671
159.29068 28.863199
159.302841 14.63043
159.32724 23.983801
159.341522 23.99103
159.35376 3.185606
159.361984 4.342593
159.375412 59.97588
159.397156 42.055111
159.421814 17.993589
159.432251 1.5125
159.454041 19.363319
159.470703 17.844721
159.49263 55.52317
159.518387 8.866667
159.528397 87.224892
159.558228 9.131194
159.572937 8.333742
159.594604 1.729167
159.603622 17.010189
159.636139 25.953489
159.669739 19.11517
159.739899 4.33716
159.755463 8.600839
159.839478 12.42667
159.849838 6.015625
159.905441 2.09375
160.016891 6.710013
160.060516 13.34722
160.080353 39.261398
160.112061 36211.679688
160.300903 15.55403
160.323883 12.96094
160.356995 30.943359
160.426895 32.402969
160.471848 52.820431
160.503143 30.771629
160.536484 48.833199
160.549942 4.864268
160.561691 21.24575
160.579224 48.826881
160.588638 5.088816
160.604919 52.424351
160.639389 49.875549
160.664886 30.8018
160.67337 54.271881
160.684677 34.078918
160.701477 13.12311
160.71077 52.081341
160.722031 15.16151
160.756302 18.575211
160.776169 23.091789
160.800751 26.5797
160.815857 22.410879
160.830673 32.902908
160.849884 13.40774
160.86554 4.697601
160.921158 15.95171
160.929245 5.435417
160.947479 15.08759
160.960205 7.897348
160.987686 17.876129
161.00882 17.389441
161.086349 65.035622
161.230469 20.931339
161.246216 3.375
161.292831 14.11598
161.407333 9.046312
161.421494 20.68119
161.441132 8.891204
161.458496 4.520833
161.485275 17.176161
161.549957 19.755119
161.612228 11.01349
161.742325 8.011363
161.844589 7.599064
161.857391 5.06813
161.968048 7.21423
162.384537 7.861008
162.457657 5.5
162.721588 2.840833
162.814804 1.361111
162.891617 10.60668
163.067245 15.08674
163.436859 4.166667
163.74968 4.9
164.10968 33.439522
164.126953 5.885057
165.353577 4.095238
165.371902 24.63512
165.50087 4.826993
166.031067 1.833333
166.119202 71.475838
166.609741 4.475379
170.095169 73.641129
170.235123 1.886905
170.303284 3.537809
171.235275 5.401464
171.298676 5.880952
173.606079 3.705882
178.12532 95.693459
178.341354 10.95385
178.401291 4.882936
181.181442 2.694079
182.115921 99.585327
184.093613 84.205643
184.13414 8.041326
184.223831 4.336538
186.984055 2.942402
188.106171 213.839798
188.22113 5.072024
188.789658 5.911574
191.533569 1.843202
203.217331 2.866667
204.954956 4.440834
205.576645 1.777778
205.845306 4.541159
206.117081 1167.786011
206.153641 271.936401
206.210663 8.385869
206.234802 2.711051
206.369873 7.342593
206.405899 1.074405
206.435043 10.46825
206.495438 5.429167
206.594681 3.1875
206.610275 3.889661
206.795166 7.347222
207.18013 7.393009
207.430176 8.539245
208.991791 5.993351
209.12265 7.084822
210.111511 10.6421
210.972961 2.920139
219.094101 5.668478
227.160538 17.55625
230.753876 5.648148
231.621933 4.194221
232.634003 2.683333
232.666382 9.082309
232.68187 10.51146
232.731171 49.423168
232.763077 22.08456
232.779526 3.5375
232.819824 62.54623
232.844452 55.56905
232.907104 21.084499
232.93837 14.71464
232.96077 7.510417
232.980957 23.90893
232.995773 13.44306
233.016342 18.00668
233.042755 9.002799
233.080063 4.420259
233.12114 50.7976
233.146606 5.899457
233.192505 11.7381
233.210754 5.013889
233.295425 5.190373
233.384262 8.264544
233.547134 10.18002
233.565506 6.824404
233.606049 3.169118
233.714294 3.6875
233.789215 8.570252
233.888901 11.90829
233.94902 11.77011
234.090973 134.005005
234.149033 17311.099609
234.213791 17.366159
234.257629 7.174819
234.292145 9.692073
234.329498 43.92944
234.364639 17.208679
234.37796 15.16667
234.403046 54.55835
234.415863 37.135349
234.429611 31.285789
234.453125 75.015083
234.478012 6.75336
234.490829 20.23485
234.508972 21.20805
234.530975 16.611879
234.545181 56.246231
234.569321 14.84131
234.628754 27.65806
234.647049 22.209681
234.662033 8.983297
234.682953 18.850309
234.702881 14.29769
234.717102 17.90711
234.75177 29.681231
234.779495 17.492929
234.802124 8.898061
234.840927 42.507851
234.880066 26.796169
234.994324 40.638969
235.019775 14.56822
235.078735 27.15967
235.228897 12.07788
235.294632 8.38313
235.459946 2.501894
235.516586 10.77344
235.599274 10.27227
235.809311 7.225559
235.867905 4.473485
236.005737 7.208818
236.257172 10.98039
236.330521 10.14606
236.359024 6.425698
236.376572 18.680321
236.389862 3.51282
236.577057 3.011029
237.166077 3.166667
237.187515 3.833965
237.203644 4.391523
237.852341 7.022989
237.938202 3.858333
238.072342 2.541667
238.228058 7.689783
238.62558 2.842262
239.534653 3.526786
241.633713 7.3416
242.564743 2.900833
244.128296 20.758551
245.78595 16.814131
249.855576 9.740794
269.196136 10.89851
270.760406 6.780241
271.918823 2.837121
272.132111 11.04694
272.165314 248.907898
272.228668 4.208333
272.316528 18.710079
272.406647 5.022059
272.862183 4.9
272.941132 2.786706
278.689575 3.037809
281.194305 7.586957
282.605988 3.180556
297.192902 28.65579
297.625946 6.203869
301.522278 9.375
313.361145 7.458333
339.04187 4.814815
339.5867 6.557692
341.268402 5.5375
341.448395 3.503205
341.519684 5.333333
341.924225 9.706141
343.201416 794.995789
343.489227 2.0
343.541168 4.65121
343.632416 6.446428
343.650879 9.094838
343.678589 8.626737
343.947144 9.833674
344.24408 5.002083
344.392487 4.666667
353.111023 4.0
364.89032 10.17949
370.029602 3.9675
447.99762 1.408333
464.04303 2.001225
645.827332 2.5
1335.969238 4.355392
1374.9198 39.8675
1384.932617 2.0
1444.677124 7.866936
1456.74585 4.6875
1526.258911 2.265931
1575.832031 5.136111
