>compound Zolmitriptan
>formula C16H21N3O2 
>ionization [M+H]+
>parentmass 288.171
#inchi InChI=1S/C16H21N3O2/c1-19(2)6-5-12-9-17-15-4-3-11(8-14(12)15)7-13-10-21-16(20)18-13/h3-4,8-9,13,17H,5-7,10H2,1-2H3,(H,18,20)/t13-/m0/s1
#inchikey ULSDMUVEXKOYBU
#Ion_Source LC-ESI
#Instrument qTof
#Compound_Source Isolated
#PI Sirenas
#Data_Collector Ed Esquenazi 
#Scan -1
#Precursor_MZ 288.171
#ExactMass 0.0
#Charge 1
#CAS_Number N/A
#Pubmed_ID N/A
#Smiles N/A
#INCHI_AUX N/A
#Library_Class 3
#SpectrumID CCMSLIB00000005714
#IonMode Positive
#UpdateWorkflowName UPDATE-SINGLE-ANNOTATED-BRONZE
#LibraryQualityString Bronze
#TaskID d19310cd93df49b68e9fcbec27720eb5
##Scan# 3
#SpectrumFile Zolmitriptan.mgf
#LibraryName fda_library.mgf
#MQScore -1
#Organism fda_library
#TIC_Query 0
#RT_Query -1
#MZErrorPPM -1
#SharedPeaks 0
#MassDiff 0
#LibMZ -1
#SpecMZ 288.171
#SpecCharge 0
#internalFilename spec-00000.mgf

>collision 10
101.035599 19.337151
102.045189 33.695511
103.053047 82.418129
104.04969 42.422661
113.03788 19.164881
115.053963 1439.838013
116.061073 78.598213
127.053543 603.338318
128.045197 16.109039
128.061295 607.852173
129.069702 1553.993042
130.071686 15.82008
131.081604 14.8601
137.921631 17.255251
139.053619 218.690308
141.05452 34.966831
141.069031 1022.005005
142.067535 45.603081
144.080429 98.741837
145.099533 18.40457
152.061111 107.337097
153.06926 982.78241
153.227173 27.82625
153.330994 17.300791
153.36702 14.36851
154.066147 3469.488037
154.118301 37.192341
154.137222 43.865791
154.15361 29.00584
154.173355 26.965851
154.20108 29.14308
154.240814 39.75626
154.289841 32.356628
154.312515 26.580009
154.341309 39.1315
154.366135 23.77272
155.084549 3573.366943
155.207123 15.97841
155.222916 36.60899
155.25174 17.16967
155.307465 43.416859
155.370087 27.66423
155.397202 56.338951
155.432861 24.91403
155.472076 27.1654
155.49791 49.073792
155.520187 16.696699
155.605179 20.850309
155.661102 20.787331
155.69635 21.71269
156.080414 8725.28125
156.133621 152.856506
156.151581 26.34066
156.175522 18.38183
156.193146 17.572411
156.241547 26.44327
156.263245 27.84363
156.281189 43.04958
156.407288 28.42148
156.443848 29.45974
156.522888 31.399561
156.714325 14.70567
156.879776 16.487419
157.088104 5818.830078
157.183228 22.56942
157.221024 14.25647
157.246521 25.63789
157.344864 16.269819
157.436218 16.560089
157.456787 14.15742
157.537186 14.82997
157.58844 14.61123
158.482437 14.93365
164.062881 14.00013
164.161224 65.200943
165.069473 7176.402832
165.123749 84.130089
165.141647 30.56126
165.187195 35.233841
165.221725 24.982861
165.263641 16.94355
165.279068 20.015881
165.295395 33.79491
165.312424 20.61256
165.344711 30.406851
165.40094 14.20038
165.41391 15.67903
165.427338 29.97179
165.466446 32.8647
165.532379 17.277941
165.587875 14.37973
165.760544 16.75103
166.203262 31.238331
166.230453 18.694679
166.373611 34.929501
166.445801 35.331051
166.60968 22.156731
167.043243 21.984079
167.0728 13954.44043
167.235489 27.57303
167.245056 20.4552
167.26828 16.3265
167.276794 16.360809
167.290283 26.18285
167.305267 18.109989
167.324707 26.73407
167.354797 49.461868
167.41156 25.809601
167.503357 14.91346
167.5298 23.76
167.582932 15.50711
167.625992 20.10416
167.663956 19.73505
167.708832 18.88022
168.065186 17.06282
168.076248 512.77771
170.086807 488.417389
172.111069 25.769831
179.016052 16.4314
180.08046 1946.220947
180.130539 14.70359
180.186432 27.421921
180.199493 30.109529
180.226074 26.16753
180.254028 24.195511
180.282288 14.18179
180.303574 43.314991
180.347 33.96244
181.053467 35.901081
181.087952 3141.38501
181.143463 37.937012
181.237778 29.14077
181.314026 22.673031
181.358948 25.436211
181.374481 23.03005
181.385056 18.698601
181.538132 20.120449
181.690109 16.148939
182.065887 59.83017
182.096237 13193.75
182.319641 21.54446
182.346542 36.573299
182.393738 35.71138
182.412628 36.86441
182.467163 16.31838
182.479065 29.13941
182.520538 31.269871
182.550201 14.47294
182.575165 22.004629
182.645706 25.726851
182.672531 31.26272
182.730911 20.931
182.769577 19.24365
182.781677 18.07925
183.098831 472.472992
192.067642 15.21987
195.091797 51.36031
196.072403 100.911598
196.096207 34.584499
197.10672 166.403503
198.092438 32.14362
199.122879 143.4319
205.07637 14.84574
207.088074 29.75069
208.075699 17.624161
225.103561 55.51466
243.111603 192.415497
