>compound MLS000876983-01!2-(3,4-dihydroxyphenyl)-7-hydroxy-8-(3-methylbut-2-enyl)-2,3-dihydrochromen-4-one
>formula C20H20O5
>ionization [M+H]+
>parentmass 341.139
#inchi InChI=1S/C20H20O5/c1-11(2)3-5-13-15(21)8-6-14-17(23)10-19(25-20(13)14)12-4-7-16(22)18(24)9-12/h3-4,6-9,19,21-22,24H,5,10H2,1-2H3
#inchikey ADFZZQAJJGHYDR
#Ion_Source LC-ESI
#Instrument qTof
#Compound_Source NIH Natural Product Library
#PI Dorrestein
#Data_Collector VVP/LMS
#Scan -1
#Precursor_MZ 341.139
#ExactMass 340.131
#Charge 1
#CAS_Number N/A
#Pubmed_ID N/A
#Smiles CC(=CCc1c(O)ccc2C(=O)CC(Oc12)c3ccc(O)c(O)c3)C
#INCHI_AUX N/A
#Library_Class 1
#SpectrumID CCMSLIB00000079493
#IonMode Positive
#UpdateWorkflowName UPDATE-SINGLE-ANNOTATED-GOLD
#LibraryQualityString Gold
#TaskID b1d8e8f6646f4e71acdff9ca3d919d08
##Scan# 2013
#SpectrumFile p1-B07_GB7_01_17891.mzXML
#LibraryName NIH_Natural_Products_Library.mgf
#MQScore -1
#Organism NIH_Natural_Products_Library
#TIC_Query 0
#RT_Query -1
#MZErrorPPM -1
#SharedPeaks 0
#MassDiff 0
#LibMZ -1
#SpecMZ 341.139
#SpecCharge 0
#internalFilename spec-00000.mgf

>collision 10
95.17205 132.0
96.46566 212.0
96.823715 156.0
97.111816 156.0
98.647675 164.0
98.861275 156.0
99.063232 156.0
100.520569 168.0
100.574455 148.0
100.61438 108.0
101.234207 132.0
101.432556 248.0
101.637115 144.0
101.777618 240.0
102.719475 60.0
102.852646 208.0
103.020248 164.0
103.078842 168.0
103.574501 212.0
104.059166 184.0
105.481117 192.0
105.724503 64.0
106.201866 168.0
106.378326 128.0
107.040344 96.0
107.244293 116.0
107.886253 108.0
108.457573 136.0
108.501106 160.0
108.563309 32.0
109.344437 160.0
110.026039 184.0
110.165962 144.0
110.393776 180.0
110.626015 168.0
111.374603 100.0
112.014046 136.0
112.433617 192.0
113.913612 48.0
114.323952 252.0
114.767014 176.0
116.760643 56.0
118.741074 204.0
119.083992 136.0
120.255333 212.0
121.028275 1024.0
122.027504 280.0
122.888657 184.0
123.045845 180.0
125.416733 184.0
125.807091 120.0
126.122047 228.0
127.856056 144.0
129.954971 164.0
131.013367 1172.0
131.04631 52.0
131.114059 148.0
132.016037 224.0
132.082733 232.0
132.756073 196.0
132.847809 40.0
133.017624 156.0
133.82225 124.0
134.737854 240.0
135.04538 200.0
137.064987 104.0
137.944839 184.0
138.061737 160.0
139.055145 124.0
139.943634 176.0
140.780716 160.0
140.903534 64.0
141.213196 176.0
141.748215 160.0
145.020309 232.0
146.033524 188.0
146.2621 172.0
147.047836 148.0
148.060806 192.0
148.785492 156.0
148.802795 184.0
148.878067 160.0
148.895065 108.0
149.023575 15164.0
149.072418 244.0
149.09671 52.0
149.133163 60.0
149.152618 108.0
149.174484 48.0
149.206085 44.0
149.269302 68.0
149.339828 144.0
149.563675 100.0
149.975311 44.0
150.025772 1376.0
150.08989 32.0
150.85405 44.0
150.883392 40.0
151.030884 304.0
151.211166 108.0
151.235641 52.0
151.370285 144.0
151.507446 76.0
151.772141 48.0
151.938904 100.0
152.503693 112.0
156.795349 228.0
157.058624 248.0
158.800446 52.0
159.026245 136.0
161.068237 176.0
163.039886 824.0
163.87146 28.0
164.034561 184.0
164.585617 104.0
165.068558 164.0
165.094131 132.0
165.516342 136.0
166.239212 52.0
166.673172 156.0
167.034561 1456.0
167.86496 136.0
168.055832 172.0
169.048523 204.0
169.060013 148.0
173.064484 172.0
175.023239 148.0
175.041672 160.0
177.067154 148.0
180.957581 180.0
181.115585 112.0
182.82579 100.0
183.235077 132.0
184.082001 132.0
185.059418 376.0
187.004471 116.0
193.062683 332.0
195.04483 132.0
197.025864 148.0
198.060883 36.0
210.077606 132.0
211.075287 144.0
211.279358 180.0
213.058365 296.0
214.054062 192.0
220.599762 88.0
221.057251 300.0
223.744324 100.0
225.056152 124.0
226.947113 132.0
228.078888 88.0
229.201416 52.0
231.745499 160.0
232.658386 72.0
239.071854 240.0
243.075928 144.0
249.056076 144.0
250.044876 216.0
252.315979 32.0
252.711319 72.0
257.080414 156.0
259.056335 124.0
267.060638 564.0
268.540314 224.0
273.145538 156.0
275.007202 116.0
284.067963 124.0
285.076172 96.0
286.079712 164.0
296.844757 124.0
297.078003 132.0
307.374634 44.0
317.059448 104.0
341.034973 160.0
341.13031 196.0
342.237885 140.0
351.053284 20.0
352.6586 32.0
427.708252 20.0
481.545044 112.0
570.504944 56.0
579.093872 40.0
802.736389 248.0
843.40509 164.0
868.91156 144.0
871.630005 240.0
918.82489 200.0
951.267883 188.0
951.42749 188.0
966.026428 168.0
994.622314 104.0
1014.365845 176.0
1050.851196 120.0
1067.731812 144.0
1075.654663 184.0
1111.364624 104.0
1118.668335 132.0
1162.661011 204.0
1168.361816 220.0
1172.310913 216.0
1175.188354 224.0
1196.854248 76.0
1224.79834 176.0
1225.16748 56.0
1246.162964 144.0
1246.640747 164.0
1271.094727 176.0
1298.617676 132.0
1307.958252 228.0
1320.071533 156.0
1320.765747 172.0
1330.113037 136.0
1342.4375 124.0
1348.328857 184.0
1371.985962 88.0
1378.377563 156.0
1380.07019 208.0
1386.925293 232.0
1397.299194 184.0
1401.289795 256.0
1401.961426 140.0
1411.814453 60.0
1417.024048 144.0
1418.552856 220.0
1431.829346 148.0
1438.139893 220.0
1462.249146 192.0
1463.558472 172.0
1471.915405 188.0
1478.206299 164.0
1481.919922 112.0
1483.597534 160.0
1485.937378 276.0
1498.191772 100.0
