>compound MLS000028644-01!3-(3,4-DIHYDROXYPHENYL)-2-METHYL-L-ALANINE
>formula C10H13NO4
>ionization [M+H]+
>parentmass 212.09173434809054
#inchi InChI=1S/C10H13NO4/c1-10(11,9(14)15)5-6-2-3-7(12)8(13)4-6/h2-4,12-13H,5,11H2,1H3,(H,14,15)/t10-/m0/s1
#inchikey CJCSPKMFHVPWAR
#Ion_Source LC-ESI
#Instrument qTof
#Compound_Source NIH Pharmacologically Active Library
#PI Dorrestein
#Data_Collector VP/LMS
#Scan -1
#Precursor_MZ 212.094
#ExactMass 211.084
#Charge 1
#CAS_Number N/A
#Pubmed_ID N/A
#Smiles C[C@](N)(Cc1ccc(O)c(O)c1)C(=O)O
#INCHI_AUX N/A
#Library_Class 3
#SpectrumID CCMSLIB00000085614
#IonMode Positive
#UpdateWorkflowName UPDATE-SINGLE-ANNOTATED-BRONZE
#LibraryQualityString Bronze
#TaskID d252d724072548979f1f6f1ced849daf
##Scan# 133
#SpectrumFile p4-D05_GD5_01_18365.mzXML
#LibraryName Pharm_Active_Library.mgf
#MQScore -1
#Organism Pharm_Active_Library
#TIC_Query 0
#RT_Query -1
#MZErrorPPM -1
#SharedPeaks 0
#MassDiff 0
#LibMZ -1
#SpecMZ 212.094
#SpecCharge 0
#internalFilename spec-00000.mgf

>collision 10
45.072041 84.0
47.206612 152.0
47.485992 212.0
48.215534 184.0
49.048466 156.0
49.742279 176.0
51.282688 196.0
51.55814 212.0
52.306843 180.0
55.133717 208.0
57.342625 36.0
58.461823 164.0
59.364666 164.0
61.925041 160.0
63.550346 156.0
64.183395 184.0
64.295067 200.0
68.633347 188.0
69.130554 200.0
89.574463 176.0
89.962921 220.0
90.943451 180.0
93.031876 132.0
102.043823 148.0
102.597466 128.0
103.05407 996.0
103.371048 72.0
103.780212 100.0
104.056824 120.0
104.088631 68.0
105.055389 136.0
106.038918 184.0
107.049683 180.0
107.910118 56.0
109.100136 160.0
110.036713 204.0
110.937233 108.0
111.043594 468.0
111.1092 56.0
112.049156 168.0
112.52771 156.0
118.406502 56.0
120.702385 136.0
120.95179 172.0
121.060692 336.0
122.068504 120.0
122.801865 76.0
122.965134 108.0
123.043732 1364.0
123.964737 160.0
124.046738 176.0
130.908981 156.0
131.051361 920.0
131.300964 204.0
132.053177 180.0
132.146149 60.0
133.046844 204.0
134.977615 176.0
139.038803 1068.0
139.232956 64.0
139.519623 72.0
140.038406 128.0
140.596054 52.0
141.014084 152.0
148.083038 228.0
148.957809 116.0
149.059921 376.0
150.060135 176.0
151.062134 548.0
152.554947 64.0
156.972046 196.0
165.918442 156.0
166.085846 1052.0
166.118469 28.0
166.500916 96.0
166.667877 92.0
167.086044 196.0
168.396469 72.0
176.823593 148.0
177.053925 152.0
178.920593 212.0
195.069885 172.0
223.986313 84.0
278.920685 232.0
279.852203 80.0
317.512177 52.0
416.643097 64.0
847.297302 136.0
871.122986 80.0
951.408752 200.0
962.960571 196.0
972.526489 60.0
985.523315 136.0
992.264099 144.0
1019.978088 96.0
1086.913696 224.0
1118.451782 172.0
1130.230835 56.0
1154.150024 124.0
1181.573853 148.0
1217.618896 152.0
1301.717773 200.0
1348.782837 148.0
1373.454834 112.0
1401.917725 128.0
1414.338013 156.0
1425.497803 184.0
1434.680298 184.0
1436.988159 216.0
1497.518188 72.0
