>compound 7-chloro-3-methyl-4H-1$l^{6},2,4-benzothiadiazine 1,1-dioxide
>formula C8H7ClN2O2S
>ionization [M+H]+
>parentmass 230.9991
#inchi InChI=1S/C8H7ClN2O2S/c1-5-10-7-3-2-6(9)4-8(7)14(12,13)11-5/h2-4H,1H3,(H,10,11)
#inchikey GDLBFKVLRPITMI
#Ion_Source LC-ESI
#Instrument qTof
#Compound_Source Commercial
#PI Dorrestein
#Data_Collector Garg_Neha
#Scan -1
#Precursor_MZ 230.999
#ExactMass 229.992
#Charge 1
#CAS_Number N/A
#Pubmed_ID N/A
#Smiles CC1=NS(=O)(=O)c2cc(Cl)ccc2N1
#INCHI_AUX N/A
#Library_Class 1
#SpectrumID CCMSLIB00000079140
#IonMode Positive
#UpdateWorkflowName UPDATE-SINGLE-ANNOTATED-GOLD
#LibraryQualityString Gold
#TaskID 278b19f5865741e282cec7349aa7e7a1
##Scan# 1113
#SpectrumFile NCP003512_G2_H11_BD7_01_15731.mzXML
#LibraryName NIHcollectionI_05062014.mgf
#MQScore -1
#Organism NIHcollectionI_05062014
#TIC_Query 0
#RT_Query -1
#MZErrorPPM -1
#SharedPeaks 0
#MassDiff 0
#LibMZ -1
#SpecMZ 230.999
#SpecCharge 0
#internalFilename spec-00000.mgf

>collision 10
47.55933 168.0
49.156475 148.0
51.922401 208.0
58.633015 164.0
63.622383 188.0
72.86219 152.0
74.426697 224.0
75.19619 184.0
85.226883 212.0
87.163353 172.0
88.246292 156.0
89.014519 140.0
90.033356 164.0
96.439644 184.0
97.058266 200.0
99.000664 908.0
99.153778 208.0
99.993652 180.0
100.607803 152.0
100.995636 304.0
104.052505 252.0
105.93483 184.0
107.445824 164.0
108.001495 152.0
111.992439 180.0
113.004578 96.0
114.010727 2000.0
116.008698 260.0
117.013184 104.0
123.920677 140.0
124.999786 140.0
125.80661 172.0
126.010422 6156.0
127.013596 176.0
128.008606 1728.0
129.01387 136.0
130.388229 188.0
134.026779 188.0
135.0009 148.0
135.90892 160.0
139.991257 404.0
140.997574 156.0
142.00563 3572.0
142.084473 204.0
143.005295 224.0
144.003708 1216.0
144.543335 176.0
145.003128 164.0
145.293274 184.0
148.948105 172.0
156.902161 176.0
165.019638 176.0
166.025955 164.0
168.02713 184.0
169.024445 176.0
171.066986 184.0
171.137268 204.0
177.016541 144.0
189.971436 2220.0
191.96933 436.0
192.971451 376.0
200.372574 180.0
207.98291 1320.0
209.011414 188.0
209.979553 276.0
213.207367 196.0
218.950256 176.0
222.32637 184.0
227.123917 164.0
229.080765 152.0
229.106674 160.0
229.180191 168.0
229.225388 156.0
230.721939 176.0
230.83429 168.0
230.9991 20548.0
232.002853 1692.0
232.996628 4820.0
233.433029 140.0
233.995895 340.0
1164.294434 264.0
1417.052368 176.0
1567.69519 164.0
1614.549927 144.0
1646.689209 148.0
1852.005005 156.0
1854.532593 220.0
1926.345459 196.0
