>compound Levonorgestrel
>formula C21H28O2 
>ionization [M+H]+
>parentmass 313.217
#inchi InChI=1S/C21H28O2/c1-3-20-11-9-17-16-8-6-15(22)13-14(16)5-7-18(17)19(20)10-12-21(20,23)4-2/h2,13,16-19,23H,3,5-12H2,1H3/t16-,17+,18+,19-,20-,21-/m0/s1
#inchikey WWYNJERNGUHSAO
#Ion_Source LC-ESI
#Instrument qTof
#Compound_Source Isolated
#PI Sirenas
#Data_Collector Ed Esquenazi 
#Scan -1
#Precursor_MZ 313.217
#ExactMass 0.0
#Charge 1
#CAS_Number N/A
#Pubmed_ID N/A
#Smiles N/A
#INCHI_AUX N/A
#Library_Class 3
#SpectrumID CCMSLIB00000005177
#IonMode Positive
#UpdateWorkflowName UPDATE-SINGLE-ANNOTATED-BRONZE
#LibraryQualityString Bronze
#TaskID d19310cd93df49b68e9fcbec27720eb5
##Scan# 3
#SpectrumFile Levonorgestrel.mgf
#LibraryName fda_library.mgf
#MQScore -1
#Organism fda_library
#TIC_Query 0
#RT_Query -1
#MZErrorPPM -1
#SharedPeaks 0
#MassDiff 0
#LibMZ -1
#SpecMZ 313.217
#SpecCharge 0
#internalFilename spec-00000.mgf

>collision 10
103.053261 286.140503
105.06987 1774.746948
105.125038 13.00112
106.380386 14.50067
107.049225 1099.567993
107.085884 640.919495
107.132835 10.1859
107.22818 13.65755
109.041534 11.84014
109.064857 4297.585938
109.101204 352.874207
109.12159 21.47175
109.150314 32.73045
109.190956 10.61495
109.229599 26.92325
109.255913 19.832729
109.317719 12.01688
109.401733 14.17235
114.422371 28.50869
115.054337 473.253815
115.360435 11.85317
116.061584 346.24231
116.547623 17.005951
116.616432 10.47619
117.069984 1590.218018
117.115112 11.25595
117.387375 12.22243
117.545189 10.06586
119.045441 10.32521
119.085548 1055.661987
119.309601 18.195431
119.508018 15.2865
120.507355 10.70491
121.063759 160.699997
121.100647 373.211792
123.080093 473.435699
123.116798 332.569489
124.688965 19.50111
125.097267 110.565201
127.052841 82.307854
128.062027 622.469177
128.165054 13.5512
128.197601 18.343
128.383179 14.32414
129.069092 1026.852051
129.157639 16.637251
129.322144 16.189011
130.077347 332.675995
130.366699 12.77802
130.44696 10.2974
131.049973 17.93815
131.063461 29.190081
131.085175 1420.350952
131.136276 10.34635
131.287949 12.24162
131.739532 15.59214
132.055496 23.85417
133.064774 122.887497
133.101379 744.968689
133.315262 12.05715
134.053665 15.28807
135.08017 1120.098999
135.11644 261.274689
135.348816 12.41354
135.783508 17.632059
137.093765 37.9184
138.914658 26.96557
140.966278 16.50107
141.069199 345.912598
142.07814 440.628113
142.254456 13.20874
142.799301 10.86963
143.084641 742.328918
144.058044 36.972462
144.093552 1024.20105
144.208466 20.747601
144.578491 10.58627
145.064636 56.084641
145.258972 10.41278
146.071564 210.403397
146.109344 59.6031
147.115784 144.065308
147.711044 10.58333
148.087357 33.915371
149.095947 149.831299
149.136536 18.1136
149.214478 11.71795
152.063843 69.071953
153.071152 92.95092
154.076706 589.094971
155.613617 12.58428
156.09317 180.072296
157.061295 26.704309
157.100754 537.56842
157.343124 10.90833
157.352081 16.08206
159.079819 130.301193
159.117279 342.185791
159.191086 13.45246
160.085922 57.22451
161.095886 402.963287
161.132324 99.987022
163.110275 176.678802
163.145752 24.060049
165.068436 115.045601
166.076675 90.598083
166.198578 10.92534
167.086563 147.973602
168.09169 106.789299
169.099472 248.512497
169.181564 18.783991
170.073502 38.697231
170.223969 11.63268
171.078613 16.23843
171.115891 309.757507
173.093124 61.785042
173.1306 158.835098
173.88266 10.20937
175.111572 163.855499
175.149872 54.134159
175.381973 10.07619
176.147446 62.03495
177.123795 18.05611
178.075897 110.925003
178.337448 12.01896
178.365204 12.33333
179.083099 144.762802
180.096344 84.791786
181.100098 218.959503
183.079346 18.879471
183.116852 235.228195
183.339844 11.28173
184.085571 25.293209
185.094635 17.331949
185.131683 307.15451
187.108414 40.52005
187.146362 114.826797
187.926468 10.66331
188.119461 20.3603
189.123917 103.523003
191.08345 29.87879
192.088608 58.098942
193.099777 62.978199
195.114365 68.595932
195.163483 11.46411
195.736969 10.82783
197.096359 22.48731
197.127808 26.566669
198.104767 28.0254
198.141174 17.352739
199.110428 69.71051
199.148651 26.3375
200.146637 46.001541
201.126602 65.057121
201.163391 17.278021
201.696548 12.12247
202.134674 28.367519
204.089081 21.31315
205.101959 81.145439
206.111359 39.667419
207.11676 128.965698
208.125748 73.384903
209.104019 18.000299
209.130325 113.122398
210.104401 28.47666
211.146317 59.33707
212.118515 42.00404
213.157867 18.170891
214.131882 22.463711
219.1129 42.808289
220.12468 24.98661
221.129761 15.6739
222.142822 10.05254
223.112381 12.38571
223.148697 72.591881
225.162476 18.994949
226.133316 37.608841
227.179382 47.001999
233.132996 35.814529
235.151566 25.20937
236.15596 13.66964
237.162781 25.4426
238.127548 14.84615
238.746429 12.23483
245.185104 43.017052
247.144775 21.754049
251.142822 11.5126
253.154388 18.439449
265.156006 22.080219
265.203308 17.667299
269.188904 36.774441
293.191711 18.033331
