>compound Ifosfamide
>formula C7H15Cl2N2O2P 
>ionization [M+H]+
>parentmass 261.0320961620905
#inchi InChI=1S/C7H15Cl2N2O2P/c8-2-4-10-14(12)11(6-3-9)5-1-7-13-14/h1-7H2,(H,10,12)
#inchikey HOMGKSMUEGBAAB
#Ion_Source LC-ESI
#Instrument qTof
#Compound_Source Isolated
#PI Sirenas
#Data_Collector Ed Esquenazi 
#Scan -1
#Precursor_MZ 261.03
#ExactMass 0.0
#Charge 1
#CAS_Number N/A
#Pubmed_ID N/A
#Smiles N/A
#INCHI_AUX N/A
#Library_Class 3
#SpectrumID CCMSLIB00000004303
#IonMode Positive
#UpdateWorkflowName UPDATE-SINGLE-ANNOTATED-BRONZE
#LibraryQualityString Bronze
#TaskID d19310cd93df49b68e9fcbec27720eb5
##Scan# 2
#SpectrumFile Ifosfamide.mgf
#LibraryName fda_library.mgf
#MQScore -1
#Organism fda_library
#TIC_Query 0
#RT_Query -1
#MZErrorPPM -1
#SharedPeaks 0
#MassDiff 0
#LibMZ -1
#SpecMZ 261.03
#SpecCharge 0
#internalFilename spec-00000.mgf

>collision 10
100.075523 28.043461
106.006058 310.391815
106.965584 12.84444
108.643021 6.967105
112.952782 87.889923
115.964333 74.324997
116.168289 7.00463
117.408928 8.469594
117.865417 18.67857
118.008232 130.387497
118.042267 295.651611
118.266991 15.49167
118.334274 8.68883
119.45826 10.17339
119.602455 21.560551
119.620636 4.666667
119.696747 8.041667
119.807144 2.678571
120.018806 130.016693
120.057457 2589.165039
120.103806 19.751419
120.117851 2.003788
120.131912 27.04167
120.194122 20.111111
120.206223 34.330791
120.254036 25.82407
120.333199 10.375
120.367348 14.04175
120.398087 13.32237
120.413353 13.19753
120.430367 26.19792
120.443893 22.670879
120.488167 11.36232
120.497353 5.702587
120.53936 2.020833
120.837463 14.15686
125.805351 8.765873
125.950867 572.336426
125.986092 112.046898
126.055199 7.354167
126.093231 5.414216
126.191994 13.88889
126.532166 3.680556
126.845818 26.12418
126.973061 140.840698
127.965454 626.104919
128.011749 5.684343
128.027939 7.028846
134.95607 31.000389
135.971939 63.03949
138.028107 8.354167
139.306793 2.020833
139.964539 65.558022
139.993332 4.694444
140.015839 2.449074
140.1745 13.68103
140.211761 12.55408
140.987442 23.70417
141.960236 26.90646
141.981415 363.86969
142.04007 2.041667
142.262192 15.09375
142.356461 2.777778
145.747986 3.342592
146.035492 933.803772
146.080566 3.053571
146.105194 11.56944
146.260818 5.0
146.323044 9.972826
147.652527 15.04167
148.668762 4.66821
153.046707 17.96266
153.077515 21.89352
153.134918 6.755556
153.167786 13.58333
153.206055 40.082981
153.23645 37.434292
153.264145 26.58806
153.279816 5.888889
153.345444 4.763889
153.474777 2.708333
153.981247 10940.860352
154.034683 102.545303
154.052765 10.66987
154.080612 14.64881
154.090973 14.02569
154.122025 30.47543
154.136383 32.61763
154.157333 30.676189
154.169373 8.477381
154.179718 37.053101
154.197983 19.564409
154.221344 16.218941
154.234161 12.34405
154.246536 15.68297
154.281921 30.654819
154.293655 46.05101
154.329681 34.037998
154.349518 41.411041
154.380188 10.34028
154.394058 6.001344
154.40799 2.041667
154.432846 22.535
154.467468 4.760417
154.48175 11.37769
154.49321 9.65661
154.511215 29.602631
154.547333 16.7803
154.619537 17.29348
154.666321 17.115391
154.727234 9.708333
154.762131 25.16341
154.815079 29.858999
154.834824 24.17452
154.983032 93.326714
155.006836 23.74123
155.093201 10.63377
155.242538 18.443569
155.445999 25.11935
155.458786 18.695511
155.537354 5.001667
155.995468 126.9851
156.667435 5.415
156.859085 13.66768
163.99823 144.447098
164.046677 49.359451
164.576721 3.490385
164.981735 80.487343
165.605148 6.371212
178.632523 5.001667
180.979828 22.033331
181.054428 15.71212
181.158752 7.757576
181.255432 2.041667
181.686615 9.366667
181.945023 1.777778
182.012222 5558.626953
182.069794 47.416672
182.101517 6.125
182.125137 10.80278
182.164383 35.566158
182.195786 14.02778
182.217194 16.54167
182.240021 5.671875
182.269882 35.18671
182.31308 32.544231
182.352524 11.72024
182.394882 28.746731
182.432617 5.017857
182.485306 28.93535
182.501144 7.55147
182.521225 9.483334
182.597122 10.00154
182.63588 29.96814
182.686447 15.75212
182.72023 32.382759
182.797455 5.560185
182.828308 1.777778
182.935745 8.818548
183.016632 15.45833
183.121216 6.84375
183.389374 15.41282
183.580933 4.002778
183.604523 16.408331
184.032242 40.89389
185.022903 118.292702
185.208954 9.12037
185.219406 1.777778
187.556885 3.708333
189.955505 46.602139
197.025375 23.07184
198.356247 6.748333
199.037766 156.992798
215.983292 20.98423
217.985016 42.84058
221.002579 9.413462
231.408875 2.520833
231.479019 18.625
231.624603 7.880051
231.675995 2.741667
231.7146 13.34205
231.730911 31.0
231.783447 3.686404
231.799347 8.789634
231.84198 13.00595
231.873505 8.015873
231.910583 7.810714
232.025314 32.114201
232.833588 7.787879
232.881851 31.844669
232.955627 37.020512
232.998596 6111.358887
233.063965 47.707142
233.135986 8.017544
233.174301 22.41346
233.205353 10.10256
233.228485 13.97543
233.245056 24.09667
233.30069 18.67226
233.318726 40.506821
233.349014 5.633333
233.419373 66.706581
233.525101 8.081667
233.542969 17.28739
233.59317 9.204166
233.657379 30.894739
233.694046 4.157052
233.763153 7.815476
234.072922 24.82613
234.215729 23.292601
235.882416 15.54672
235.970581 3.005953
236.02919 5.357143
240.219452 15.98732
240.496857 5.015
259.463989 19.00543
259.486023 17.746691
259.57608 7.334459
259.732361 3.333333
259.756714 10.78922
259.799835 12.60119
259.856567 3.066667
259.940765 4.531863
260.221039 13.47756
260.243469 3.375
261.029358 6222.542969
261.095886 37.837959
261.141357 25.275761
261.18158 7.363636
261.212769 44.04184
261.243561 61.08424
261.273102 65.877831
261.312195 27.911909
261.346588 69.396347
261.406311 5.177632
261.459808 15.60833
261.502258 14.64209
261.533508 34.434689
261.558807 6.777778
261.625854 15.77381
261.675873 13.04429
261.800385 33.77504
261.890503 9.057693
261.922302 15.29657
261.946838 19.05533
262.06723 6.25926
262.192078 8.884804
262.505829 9.805555
262.870148 9.314103
263.937653 2.416667
564.103882 19.02206
788.252747 2.761364
925.957092 12.23184
