>compound MLS001335881-01!METYRAPONE
>formula C14H14N2O
>ionization [M+H]+
>parentmass 227.116821
#inchi InChI=1S/C14H14N2O/c1-14(2,12-6-4-8-16-10-12)13(17)11-5-3-7-15-9-11/h3-10H,1-2H3
#inchikey FJLBFSROUSIWMA
#Ion_Source LC-ESI
#Instrument qTof
#Compound_Source NIH Pharmacologically Active Library
#PI Dorrestein
#Data_Collector VP/LMS
#Scan -1
#Precursor_MZ 227.114
#ExactMass 226.111
#Charge 1
#CAS_Number N/A
#Pubmed_ID N/A
#Smiles CC(C)(C(=O)c1cccnc1)c2cccnc2
#INCHI_AUX N/A
#Library_Class 1
#SpectrumID CCMSLIB00000085326
#IonMode Positive
#UpdateWorkflowName UPDATE-SINGLE-ANNOTATED-GOLD
#LibraryQualityString Gold
#TaskID d252d724072548979f1f6f1ced849daf
##Scan# 1201
#SpectrumFile p3-H05_GH5_01_18310.mzXML
#LibraryName Pharm_Active_Library.mgf
#MQScore -1
#Organism Pharm_Active_Library
#TIC_Query 0
#RT_Query -1
#MZErrorPPM -1
#SharedPeaks 0
#MassDiff 0
#LibMZ -1
#SpecMZ 227.114
#SpecCharge 0
#internalFilename spec-00000.mgf

>collision 10
45.014214 120.0
45.85004 132.0
45.895878 216.0
45.943085 192.0
46.539989 180.0
46.601112 192.0
46.809044 140.0
47.036934 128.0
47.337742 112.0
47.380203 176.0
47.389793 168.0
47.565346 200.0
47.877476 192.0
48.124321 216.0
48.632408 168.0
48.701839 88.0
49.495422 120.0
49.527634 192.0
49.585083 180.0
49.898132 248.0
50.426785 136.0
50.626278 168.0
50.644688 128.0
50.665939 248.0
50.843193 76.0
51.30978 168.0
51.435322 224.0
51.602478 108.0
52.325626 172.0
52.345787 148.0
52.432228 156.0
53.680508 100.0
53.716972 256.0
53.949177 148.0
54.228775 176.0
55.308495 228.0
55.656906 220.0
56.171879 228.0
56.339085 136.0
56.603832 176.0
56.638283 200.0
56.747684 268.0
57.475719 32.0
57.659966 148.0
57.728001 224.0
57.823315 184.0
57.927795 204.0
58.206875 228.0
58.332985 164.0
58.570381 180.0
58.599327 232.0
58.641994 140.0
58.753319 128.0
59.046612 216.0
59.256336 192.0
59.27779 148.0
59.417328 172.0
59.603119 204.0
60.061924 180.0
60.584446 148.0
60.838791 232.0
61.542553 176.0
62.230381 72.0
62.416935 172.0
62.681396 196.0
62.813839 196.0
63.115505 112.0
63.67017 188.0
64.818832 36.0
64.921432 208.0
65.032135 212.0
65.408279 180.0
65.553238 196.0
66.071564 204.0
66.178383 112.0
66.285294 100.0
66.561066 164.0
66.68779 268.0
66.782097 100.0
66.928574 200.0
67.003494 168.0
68.221153 132.0
68.232666 152.0
68.36097 204.0
68.566833 132.0
68.982803 264.0
69.139938 164.0
69.361893 168.0
69.408318 96.0
69.421585 92.0
70.038216 44.0
70.246162 140.0
70.333359 64.0
70.355064 204.0
70.580627 168.0
70.670959 136.0
70.72953 80.0
70.788132 40.0
70.838379 100.0
71.37043 92.0
71.388924 160.0
71.727356 184.0
71.7948 72.0
72.279648 176.0
72.499802 144.0
72.839149 112.0
73.365005 192.0
73.544121 144.0
73.815773 120.0
74.740387 252.0
74.917732 92.0
75.069412 128.0
75.274773 136.0
75.909882 232.0
76.384048 160.0
76.511093 92.0
76.554619 204.0
76.660889 200.0
76.786415 160.0
77.041275 236.0
77.144386 168.0
77.26506 144.0
77.389854 200.0
77.938354 244.0
78.019211 128.0
78.138809 216.0
78.2761 172.0
78.596931 132.0
78.610168 20.0
78.718735 192.0
78.838867 160.0
78.921951 224.0
79.472832 76.0
79.542046 132.0
79.783653 156.0
80.300072 156.0
80.491028 292.0
81.325325 200.0
82.118828 112.0
83.121117 172.0
83.139267 140.0
83.211876 176.0
83.300865 168.0
83.382637 136.0
83.489899 192.0
83.642738 228.0
83.659126 208.0
84.160522 176.0
84.403549 164.0
85.438034 112.0
85.467476 112.0
85.677376 160.0
86.613998 200.0
86.649193 160.0
86.751129 48.0
86.788139 212.0
87.048004 44.0
87.207779 200.0
87.661903 68.0
87.779343 128.0
88.731102 260.0
88.918694 192.0
88.944969 176.0
88.988152 164.0
89.162857 140.0
89.965302 208.0
90.593178 192.0
90.980057 216.0
91.065514 88.0
91.34684 188.0
91.379181 128.0
91.491478 136.0
91.643845 164.0
91.914612 144.0
91.958511 212.0
92.052269 176.0
92.24826 216.0
92.463097 140.0
92.497551 160.0
93.055321 384.0
93.072723 152.0
93.139946 84.0
93.310478 228.0
93.744087 104.0
94.164673 84.0
94.479767 136.0
94.973747 184.0
95.084351 156.0
96.439987 216.0
96.47908 116.0
96.580772 148.0
96.615982 120.0
96.798019 60.0
96.935143 216.0
97.55735 144.0
97.667473 156.0
97.695015 260.0
99.084518 100.0
99.948647 84.0
100.37693 176.0
100.582428 136.0
100.888077 28.0
100.95266 200.0
100.968063 156.0
101.222221 260.0
101.286316 200.0
102.089157 136.0
102.526031 176.0
102.586502 196.0
102.600609 160.0
103.3965 168.0
103.542267 112.0
103.921356 136.0
104.004562 200.0
104.048027 176.0
104.282837 176.0
105.036247 40.0
105.054802 372.0
105.070267 124.0
105.075668 184.0
105.121941 60.0
105.409874 72.0
105.507988 120.0
105.589783 156.0
105.741188 180.0
105.784172 200.0
105.806694 192.0
105.909088 192.0
106.065125 17928.0
106.179642 36.0
106.198105 176.0
106.24939 56.0
106.285316 164.0
106.358154 48.0
106.464569 164.0
106.507271 104.0
106.697113 196.0
106.863716 216.0
107.068054 908.0
107.141663 48.0
107.57888 28.0
107.673866 84.0
107.74823 88.0
107.778923 136.0
108.006645 48.0
108.06871 252.0
108.58902 224.0
108.866791 148.0
108.933258 260.0
109.037155 184.0
109.255493 164.0
109.671982 68.0
109.966087 164.0
110.112236 208.0
110.913628 124.0
111.085579 176.0
111.364769 76.0
111.442497 192.0
111.461411 132.0
112.27401 152.0
112.30143 204.0
112.525124 140.0
113.066277 200.0
113.178474 148.0
113.502686 124.0
113.865585 52.0
114.661308 160.0
115.575325 104.0
115.827957 232.0
115.875084 60.0
115.967232 164.0
116.074432 160.0
116.100952 256.0
116.83049 244.0
117.039261 112.0
117.054337 168.0
117.506996 92.0
117.686142 164.0
117.858948 156.0
118.06472 616.0
118.495087 156.0
118.698837 172.0
118.963539 196.0
119.074135 172.0
119.400299 116.0
119.474258 132.0
119.522125 88.0
119.650543 84.0
119.756752 192.0
119.846573 160.0
119.9431 192.0
120.056992 476.0
120.080696 30556.0
120.116913 80.0
120.139252 100.0
120.156364 64.0
120.202003 64.0
120.21946 40.0
120.241287 64.0
120.263115 40.0
120.289093 204.0
120.330788 72.0
120.370094 60.0
120.387566 128.0
120.467728 80.0
120.544853 60.0
120.632278 72.0
120.665077 44.0
120.684753 44.0
120.780983 140.0
120.813797 44.0
120.921021 56.0
120.952446 180.0
120.986687 44.0
121.008583 80.0
121.087234 7276.0
121.133415 92.0
121.156578 84.0
121.22982 36.0
121.24736 192.0
121.278046 52.0
121.326271 72.0
121.356964 68.0
121.453461 40.0
121.563164 92.0
121.853012 96.0
121.901352 108.0
121.948235 96.0
121.991989 84.0
122.053032 140.0
122.088547 336.0
122.174004 136.0
122.70919 132.0
122.806221 60.0
122.918739 84.0
122.980537 68.0
123.011444 44.0
123.115517 148.0
123.196945 52.0
125.924797 56.0
127.870964 100.0
128.118668 124.0
128.881287 152.0
129.220444 76.0
129.730026 120.0
130.356476 80.0
131.112045 140.0
131.47467 140.0
132.176239 84.0
136.520233 160.0
139.00589 164.0
143.076233 212.0
148.403122 44.0
156.077026 160.0
156.965286 140.0
158.984833 208.0
163.195953 188.0
165.070175 112.0
166.071564 184.0
168.067642 436.0
169.319153 116.0
172.78653 116.0
183.097717 140.0
193.549835 60.0
194.087402 216.0
194.345367 36.0
195.095276 324.0
206.482758 100.0
208.25119 68.0
211.086884 196.0
212.071472 104.0
212.091766 76.0
226.871613 68.0
227.116821 728.0
227.21051 68.0
228.117264 356.0
229.119629 128.0
241.821045 88.0
243.541901 84.0
252.769073 76.0
263.206543 20.0
273.967163 40.0
353.098785 184.0
457.789734 44.0
494.340485 76.0
498.357971 100.0
540.66217 120.0
567.890137 72.0
667.110535 60.0
717.140747 76.0
816.581909 220.0
832.091248 76.0
877.105652 252.0
879.057861 120.0
886.455811 160.0
889.813171 100.0
922.598328 204.0
965.588623 256.0
994.813599 180.0
1000.975342 240.0
1004.744568 144.0
1008.754822 256.0
1032.581055 216.0
1040.135498 192.0
1103.776611 148.0
1109.046631 132.0
1110.624756 136.0
1113.505371 192.0
1114.222778 200.0
1117.660278 100.0
1118.292603 128.0
1118.512207 176.0
1122.909912 160.0
1123.423584 212.0
1132.340698 172.0
1133.707397 136.0
1134.283813 192.0
1136.195068 116.0
1139.941895 180.0
1145.196289 136.0
1145.667847 212.0
1154.868774 116.0
1155.315186 136.0
1159.255981 208.0
1161.690186 216.0
1162.144653 132.0
1169.041992 72.0
1174.301636 200.0
1174.88147 256.0
1175.08606 92.0
1180.236206 212.0
1189.773682 132.0
1192.54895 172.0
1193.456421 188.0
1194.522461 128.0
1194.756348 144.0
1195.210449 196.0
1205.519897 188.0
1208.728638 184.0
1208.825439 136.0
1208.931641 228.0
1210.660034 224.0
1216.255371 144.0
1218.088501 136.0
1220.946167 164.0
1221.404419 44.0
1224.745605 224.0
1228.775024 184.0
1229.42395 36.0
1230.408203 80.0
1233.803589 220.0
1234.572754 188.0
1234.866577 156.0
1236.020874 192.0
1237.74292 232.0
1237.945923 172.0
1242.241943 240.0
1242.951172 124.0
1244.186523 132.0
1244.565674 104.0
1244.621826 84.0
1245.057251 188.0
1248.500977 224.0
1249.429443 156.0
1252.125488 124.0
1256.820557 136.0
1259.489258 180.0
1265.797974 172.0
1269.241821 60.0
1273.237305 168.0
1274.210449 144.0
1277.672852 224.0
1280.328003 172.0
1283.855713 180.0
1287.352661 156.0
1287.66687 144.0
1289.031494 208.0
1289.953491 156.0
1290.568359 232.0
1290.975952 204.0
1299.306519 132.0
1300.268066 60.0
1304.527588 192.0
1308.563721 196.0
1311.877808 196.0
1313.356079 184.0
1313.709595 180.0
1314.669312 216.0
1318.771606 36.0
1320.391235 108.0
1321.6427 204.0
1323.857788 220.0
1324.198242 216.0
1325.574707 152.0
1334.226807 28.0
1337.114746 128.0
1338.592529 180.0
1340.136841 204.0
1340.7854 156.0
1341.827759 168.0
1344.271362 124.0
1345.483032 148.0
1346.074463 244.0
1346.38855 216.0
1346.797607 48.0
1348.266113 140.0
1352.596191 152.0
1354.756592 20.0
1365.208862 200.0
1366.040039 116.0
1368.328857 228.0
1377.673218 216.0
1384.256104 160.0
1386.834351 124.0
1388.265259 192.0
1390.067993 124.0
1391.129395 200.0
1391.270386 180.0
1391.908936 196.0
1394.434814 220.0
1398.049438 156.0
1399.441406 180.0
1401.698486 188.0
1402.85376 156.0
1403.055054 160.0
1403.770874 120.0
1404.568848 172.0
1408.794067 288.0
1413.706665 116.0
1414.84436 140.0
1416.132446 160.0
1416.439575 156.0
1417.151245 172.0
1418.605225 212.0
1420.847656 96.0
1421.507935 148.0
1424.383545 216.0
1425.232544 140.0
1428.32251 124.0
1431.92041 108.0
1433.012695 108.0
1436.60144 200.0
1437.929565 116.0
1438.812744 184.0
1439.824585 172.0
1440.5271 108.0
1441.282593 156.0
1441.773804 208.0
1442.801758 56.0
1445.52478 128.0
1445.751831 172.0
1447.962524 228.0
1448.288208 200.0
1449.409546 116.0
1451.65332 224.0
1451.850586 164.0
1452.935303 148.0
1455.607056 272.0
1458.821045 188.0
1460.281006 140.0
1461.414551 160.0
1465.198608 160.0
1466.585571 188.0
1467.660522 84.0
1467.896851 180.0
1468.590942 176.0
1468.926514 104.0
1471.345825 196.0
1472.208618 164.0
1472.407227 248.0
1474.256104 192.0
1474.569336 56.0
1477.383423 184.0
1480.031616 152.0
1480.092896 160.0
1480.360962 104.0
1480.820435 228.0
1481.18042 244.0
1481.555786 132.0
1482.92749 164.0
1484.9823 128.0
1486.248169 172.0
1486.324951 156.0
1487.146118 184.0
1492.293213 196.0
1495.963013 160.0
1498.019287 152.0
1502.09729 164.0
1502.976807 120.0
1504.999146 140.0
