>compound Rolipram
>formula C16H21NO3 
>ionization [M+H]+
>parentmass 276.16
#inchi InChI=1S/C16H21NO3/c1-19-14-7-6-11(12-9-16(18)17-10-12)8-15(14)20-13-4-2-3-5-13/h6-8,12-13H,2-5,9-10H2,1H3,(H,17,18)
#inchikey HJORMJIFDVBMOB
#Ion_Source LC-ESI
#Instrument qTof
#Compound_Source Isolated
#PI Sirenas
#Data_Collector Ed Esquenazi 
#Scan -1
#Precursor_MZ 276.16
#ExactMass 0.0
#Charge 1
#CAS_Number N/A
#Pubmed_ID N/A
#Smiles N/A
#INCHI_AUX N/A
#Library_Class 3
#SpectrumID CCMSLIB00000004963
#IonMode Positive
#UpdateWorkflowName UPDATE-SINGLE-ANNOTATED-BRONZE
#LibraryQualityString Bronze
#TaskID d19310cd93df49b68e9fcbec27720eb5
##Scan# 6
#SpectrumFile Rolipram.mgf
#LibraryName fda_library.mgf
#MQScore -1
#Organism fda_library
#TIC_Query 0
#RT_Query -1
#MZErrorPPM -1
#SharedPeaks 0
#MassDiff 0
#LibMZ -1
#SpecMZ 276.16
#SpecCharge 0
#internalFilename spec-00000.mgf

>collision 10
101.724075 14.63021
101.95887 47.61908
101.990822 11.63315
102.045959 405.815796
102.153107 26.693911
102.223846 8.121324
102.449203 75.041412
102.479851 20.427759
102.501472 33.451889
102.518822 15.0125
102.534943 48.5
102.567856 19.0875
102.574539 10.025
102.589058 14.09091
102.61692 32.030319
102.626419 61.606621
102.645439 19.060049
102.655197 39.64286
102.68206 24.5625
102.699417 21.13843
102.723007 11.54625
102.749191 16.70833
102.766449 9.529411
102.792145 8.704166
102.804108 6.002717
102.817467 3.166667
102.839401 5.160714
102.883957 25.491911
103.054626 43596.550781
103.154182 64.058823
103.178024 63.663502
103.193253 61.594509
103.212837 69.322281
103.232239 87.047668
103.251953 50.075321
103.264671 21.82522
103.280365 61.386269
103.290337 100.842003
103.312927 24.148809
103.320938 116.713501
103.327042 34.44788
103.349213 73.432068
103.35479 40.78125
103.361465 28.334841
103.381248 38.505192
103.389038 20.21904
103.403427 31.480049
103.411934 47.896191
103.432953 28.001181
103.466209 80.749481
103.491005 77.295914
103.499908 20.785469
103.508034 60.997898
103.535019 90.770828
103.560944 25.0625
103.57328 32.788029
103.581589 11.03846
103.602211 37.8004
103.621765 29.7225
103.629532 42.578671
103.638245 14.04223
103.655998 28.431971
103.667328 76.499359
103.801224 6.002976
103.862556 17.502979
103.932869 18.847759
103.942009 17.39286
103.974365 32.038841
104.024857 28.71121
104.088585 11.00568
104.1036 16.013029
104.152672 38.695019
104.39753 9.507353
104.547249 32.736031
104.578896 32.625
104.592133 22.0
104.703537 37.802502
104.739052 4.517857
104.781654 7.571429
104.849449 8.5
104.86377 13.39689
105.030914 206.887894
105.069794 5533.651855
105.113747 49.209148
105.172523 14.18056
105.224426 5.125
105.236618 10.82721
105.248848 10.5744
105.270218 4.0
105.298775 11.14464
105.311539 72.120728
105.380898 18.73835
105.391609 4.004167
105.445503 23.05373
105.452332 21.61161
105.518036 2.8125
105.663918 13.68371
105.728912 14.84698
105.902962 11.22321
105.988884 12.25
106.041183 352.387512
106.065323 2789.768066
106.108803 29.661591
106.12587 11.56944
106.139359 10.74395
106.164452 18.0
106.36528 7.5
106.401161 7.145833
106.429871 14.63021
106.447815 11.03125
106.501663 19.534719
106.622665 29.508329
106.675858 5.625
106.713516 8.7
106.724373 11.28125
106.73156 9.511364
106.839409 5.5
107.049088 1121.206055
107.094872 9.142858
107.177689 9.570313
107.213852 23.286989
107.292969 6.545455
107.38308 11.00169
107.431465 21.102501
107.437103 13.00329
107.490219 4.5625
107.69207 12.3
107.733047 7.00329
108.449196 11.06618
108.724785 11.95363
109.027122 968.866821
109.061966 81.429817
109.248566 10.0625
109.437111 3.005682
109.633469 26.65675
109.680916 4.083333
110.035286 1074.202026
110.078178 14.36422
110.201157 2.508929
110.233208 22.148809
110.342026 3.223214
110.652008 21.905001
111.034851 3.3125
111.610161 10.8
112.161751 27.27705
113.037743 131.427307
113.084251 5.555555
114.986313 14.64205
115.054306 980.299683
115.228928 8.580358
115.38739 12.19837
115.550308 10.06618
116.359612 22.002979
116.453308 13.64464
117.070183 177.097595
117.440147 14.7
117.465599 7.347222
118.061676 191.097397
118.100388 15.19531
118.38353 9.9225
118.474251 6.529605
119.049988 236.7612
119.086571 29.54343
119.217949 6.3375
119.993744 15.0
120.055328 310.985596
120.469185 7.142857
120.688316 17.08882
120.707428 13.00694
121.028229 242.012299
121.064789 3524.937988
121.1129 38.1572
121.227798 12.02273
121.258369 14.32008
121.288536 37.21875
121.341179 10.45066
121.35807 14.73472
121.36573 10.5
121.434662 22.057779
121.450058 16.018141
121.476173 29.96917
121.511185 3.673611
121.595795 4.5
121.88752 5.517857
122.035835 554.647888
122.072662 34.229172
122.220619 10.27841
122.249428 13.33333
122.426491 7.642045
122.755089 60.208328
123.043144 490.201508
123.077309 161.3358
123.193977 3.78125
123.405174 5.5625
123.43145 8.504167
123.501968 23.117729
123.62587 15.13021
124.05217 2676.89209
124.10202 7.071429
124.124046 10.94643
124.152603 33.58997
124.28904 9.1
124.332077 10.36012
124.47699 11.86012
124.535812 15.50298
124.563721 10.05787
125.373146 10.38889
127.051033 101.0065
128.059357 102.001801
129.056259 104.626701
129.395248 4.666667
129.435837 6.05
130.042038 837.695801
130.06311 579.562012
130.119095 6.890625
130.193588 14.84073
130.249405 19.52083
130.257294 13.61765
130.273178 9.53125
130.281082 18.25762
130.289108 17.880951
130.312592 26.93799
130.332748 6.013889
130.346573 13.68182
130.365692 24.64464
130.402664 78.956787
130.420135 23.52648
130.440048 17.50893
130.471863 21.601139
130.487274 50.19849
130.499603 28.019779
130.513992 13.18445
130.57518 23.125
130.587173 20.00139
130.614883 24.615561
130.662598 12.66331
130.672531 9.5
130.821838 28.04167
130.869461 14.56618
130.881638 7.506945
130.921204 36.002449
130.967148 38.19886
131.049286 31463.259766
131.099442 522.622803
131.130554 52.525002
131.147003 25.822371
131.162109 118.975403
131.170212 27.84375
131.181351 100.583298
131.207184 57.003471
131.223755 84.160858
131.24173 43.018349
131.2621 99.594353
131.287186 24.20031
131.305252 135.306503
131.321747 62.591721
131.368469 118.503403
131.383179 66.357224
131.404846 29.347759
131.423569 53.243919
131.455811 29.81826
131.478012 28.00894
131.500443 51.263161
131.523209 49.71014
131.540344 17.502319
131.580185 100.931198
131.623337 39.742611
131.64679 26.07692
131.682602 17.75568
131.702972 24.053881
131.785828 27.714279
131.819916 34.015629
131.850906 15.44464
131.917374 28.30179
132.114105 12.5
132.209824 19.133329
132.566803 10.00893
132.690002 7.03125
133.027847 193.464294
133.064148 1731.973999
133.114441 10.29403
133.151794 9.113426
133.235916 33.873932
133.291031 5.4
133.39328 19.674999
133.417664 73.335297
133.464569 13.09191
133.542465 10.23558
133.725296 12.44485
133.758652 21.04167
133.774734 22.5
133.955872 14.00735
134.033264 111.475601
134.059723 5882.428223
134.118515 12.5625
134.145187 3.0
134.165329 6.0125
134.185471 17.01442
134.20195 7.620193
134.210648 11.34375
134.269913 40.10083
134.363052 11.84615
134.374939 3.5625
134.393417 11.14286
134.407227 16.50139
134.418655 29.64329
134.469391 17.8913
134.653351 11.00961
134.705841 8.003289
134.903793 10.86422
134.963608 11.55682
135.043427 1345.207031
135.079849 978.252625
135.130127 11.04327
135.162491 20.660721
135.190613 12.55
135.204025 11.10417
135.301437 36.09457
135.349777 4.642045
135.551041 5.104167
135.60434 26.009871
135.834656 10.55
136.099075 14.41557
136.114059 20.54417
136.178375 13.05592
136.224152 7.071429
136.266724 22.56926
136.281082 19.05114
136.335999 16.68371
136.350128 24.00662
136.383606 52.83065
136.39888 3.5
136.475113 17.278021
136.516739 11.5
136.593643 16.76078
136.671265 21.410231
136.846497 37.048908
137.05954 4402.149902
137.108765 21.665701
137.152573 45.454189
137.1922 20.3125
137.237198 17.14464
137.258591 35.46072
137.290222 13.51607
137.306732 14.10227
137.343079 18.693911
137.424667 7.0375
137.470596 18.0625
137.604263 11.01389
137.666809 18.5625
138.60582 4.043269
139.07608 42.828411
139.212479 24.09091
139.992966 7.890625
141.031433 415.489899
141.156815 7.633152
141.214676 13.11773
141.748489 17.148809
142.075348 94.315651
142.125641 4.506945
142.873169 6.003676
143.05162 195.610306
144.382431 14.08333
145.067444 427.683105
145.844803 6.620193
145.902985 8.785714
146.032043 13.16346
146.059555 101.475998
146.338684 30.868299
147.043457 843.422729
147.066788 346.338196
147.130936 28.50106
147.179871 5.104167
147.286682 9.8
147.403412 10.09191
147.496582 16.175871
147.674088 7.5
148.051315 2224.416016
148.10141 3.041667
148.154678 11.0125
148.215714 17.796301
148.232727 36.030659
148.262314 3.6
148.2892 13.01042
148.351807 25.271879
148.390244 5.725
148.432373 9.051136
148.465927 18.22917
148.503906 13.39
148.611633 21.586889
149.004532 12.63682
149.058441 2732.150879
149.109177 13.8766
149.126038 8.460227
149.153885 54.382881
149.161713 17.6609
149.204346 14.47059
149.314697 16.007351
149.379532 15.125
149.416046 5.555555
149.480545 10.51815
149.500412 15.9025
149.515213 17.0016
149.726517 24.14583
150.030106 66.442497
150.067719 2679.856934
150.187439 8.502315
150.22084 13.0625
150.379349 19.0016
150.396408 20.50099
150.414383 15.88911
150.56311 8.604167
150.584198 5.5375
150.639938 11.50568
150.670227 18.11128
151.099945 4.1125
151.181488 26.74107
151.208115 4.620193
151.272293 7.502155
151.736084 15.26008
155.04393 23.361679
158.037781 142.995895
158.05928 630.388123
158.103943 5.0
159.044708 848.888306
159.115982 14.6475
159.259048 25.200001
159.335526 6.026786
159.377792 14.3
159.502441 4.5
159.6931 7.28125
160.051331 1344.155029
160.128479 17.016069
160.26297 8.204166
160.311844 6.640625
160.432663 59.15625
160.451035 10.58173
160.668869 6.011364
160.699738 12.67361
160.982117 19.306141
161.746628 7.161184
162.145111 2.580357
162.338257 18.621321
162.685974 15.04891
162.788055 5.104167
163.040787 33.57122
163.074936 2767.288086
163.155945 53.878792
163.201111 15.50216
163.25441 6.722222
163.2742 4.5
163.338257 8.03125
163.347809 17.6
163.360001 14.45
163.386642 40.220001
163.405609 31.183821
163.452316 8.8125
163.479965 33.061062
163.503677 29.8811
163.606659 25.53064
163.699127 7.722222
163.752869 34.880032
164.657639 8.613426
165.089111 132.230896
165.162964 21.125
165.249161 21.557289
166.085876 494.997314
166.15419 3.223214
166.60524 11.01705
167.068222 30.78233
168.864136 13.16346
172.219864 10.50202
172.694992 15.00106
173.060837 958.884827
173.111267 3.505682
173.125 3.0
173.463898 11.50568
174.034058 84.462914
174.05011 273.82309
174.151871 3.505682
174.237885 18.615391
175.121902 15.64828
175.508499 43.64687
175.605606 5.120193
175.665955 45.045078
175.831619 19.075001
176.0466 4190.344238
176.08815 210.659805
176.113113 5.520833
176.122345 9.035714
176.189743 9.888889
176.204178 8.621324
176.265518 25.10417
176.283813 33.125
176.339401 8.0
176.367157 29.681471
176.406937 9.223214
176.439758 15.7181
176.464218 26.420139
176.491898 17.042231
176.549225 30.8125
176.575165 7.266448
176.630569 13.18382
176.688492 41.331371
176.725372 3.25
176.85257 14.70455
176.884384 11.5625
177.423035 6.446429
177.570389 8.05787
177.667892 34.15313
177.830093 20.566669
178.083801 48.29018
178.141052 13.57853
178.331482 23.01613
178.396591 11.40833
178.731247 13.14881
179.068649 45.66362
189.055222 184.944107
189.195892 34.168812
190.086014 194.416702
190.719803 11.11141
191.069809 1044.328979
191.158096 8.035714
191.213821 9.9
191.255142 18.07863
191.413422 18.013889
191.438171 12.89286
191.562622 3.673611
191.673096 17.5
193.075043 97.166962
193.274902 50.200001
203.859283 20.777929
204.101944 11.11765
206.080368 301.512909
207.359909 13.01786
208.09549 449.300903
208.157547 4.142045
208.308212 12.54735
208.473938 21.120041
208.739243 16.700001
208.795532 11.025
276.152405 100.711998
460.594757 25.26178
1030.889404 27.16827
1103.168579 26.0168
1273.662964 23.9375
1472.765503 23.012501
1636.119629 130.8125
1636.290405 6.524457
