>compound Diadzein
>formula C15H10O4 
>ionization [M+H]+
>parentmass 255.064407
#inchi InChI=1S/C15H10O4/c16-10-3-1-9(2-4-10)13-8-19-14-7-11(17)5-6-12(14)15(13)18/h1-8,16-17H
#inchikey ZQSIJRDFPHDXIC
#Ion_Source LC-ESI
#Instrument qTof
#Compound_Source Isolated
#PI Sirenas
#Data_Collector Ed Esquenazi 
#Scan -1
#Precursor_MZ 255.066
#ExactMass 0.0
#Charge 1
#CAS_Number N/A
#Pubmed_ID N/A
#Smiles N/A
#INCHI_AUX N/A
#Library_Class 3
#SpectrumID CCMSLIB00000006050
#IonMode Positive
#UpdateWorkflowName UPDATE-SINGLE-ANNOTATED-BRONZE
#LibraryQualityString Bronze
#TaskID d19310cd93df49b68e9fcbec27720eb5
##Scan# 3
#SpectrumFile Diadzein.mgf
#LibraryName fda_library.mgf
#MQScore -1
#Organism fda_library
#TIC_Query 0
#RT_Query -1
#MZErrorPPM -1
#SharedPeaks 0
#MassDiff 0
#LibMZ -1
#SpecMZ 255.066
#SpecCharge 0
#internalFilename spec-00000.mgf

>collision 10
102.047844 7.162634
103.055603 183.164398
105.033852 557.099792
105.102402 8.753205
105.165009 12.13611
105.192055 4.59375
105.320076 7.757883
105.362991 5.88587
105.786934 14.09339
106.040222 519.838379
106.081909 4.340278
106.110588 19.890739
106.144623 7.75
106.196548 6.336111
106.228882 11.00093
106.235794 11.88005
106.33934 7.5
106.487061 5.028846
106.556503 16.242649
107.050293 199.098206
107.058693 12.28004
109.028381 492.274811
109.07016 5.708333
114.55761 13.75347
115.052147 445.823486
115.098152 4.666667
115.139214 6.335145
115.259438 10.37255
116.742889 13.90645
117.017014 9.005555
117.02887 18.044451
117.070602 86.717087
117.629089 5.002778
118.040947 97.011513
118.171646 19.561399
118.524582 18.30579
119.048637 908.89093
119.094635 4.704167
119.134491 29.11541
119.374901 9.354167
119.425377 3.857143
119.463318 22.05093
119.757492 11.32003
120.020226 31.37875
121.027916 243.457199
121.15493 7.078432
121.17408 2.336539
121.346458 7.008333
122.431496 4.375
126.458687 7.190217
127.054199 354.882812
127.105934 2.347222
127.155983 32.2766
127.272804 6.011364
127.372322 13.16346
127.917267 5.666667
128.061768 1815.073975
128.109848 13.83333
128.188904 6.160257
128.215073 4.266667
128.254257 6.226852
128.2677 9.346265
128.29924 5.083333
128.312851 24.082211
128.358337 14.8776
128.374115 5.813406
128.471786 4.0
128.504211 8.05
129.049057 22.394079
129.068588 589.583191
129.11586 5.136111
129.199051 19.34783
129.270203 19.851919
129.340546 7.166667
129.642105 15.11574
130.30484 6.724359
130.535263 10.67581
130.563171 6.897436
131.049454 457.956299
131.17598 16.59868
131.207809 4.380952
131.343384 5.333333
131.385254 4.791667
132.08847 26.9697
133.030121 123.255302
133.337311 3.555556
133.750488 3.047619
133.871048 13.46959
134.034164 69.919167
134.136612 5.531863
134.383179 29.8659
134.431305 8.20119
134.770355 6.880952
135.045807 38.195351
136.395126 16.192289
136.490204 11.0
136.630463 9.675813
136.764099 10.92747
136.893066 2.016667
137.023407 3034.125
137.075714 20.718519
137.106659 19.19758
137.156326 6.680555
137.179977 4.7
137.188431 3.823718
137.216309 14.14405
137.254471 8.680555
137.266495 13.63636
137.28595 12.35
137.326981 19.32955
137.33699 12.47639
137.387375 19.082319
137.516968 1.6875
137.542145 21.8442
137.559174 27.339621
137.591827 1.666667
137.787781 7.005208
138.826965 6.011364
140.06076 38.9552
140.274673 8.268333
141.068115 168.829697
141.487671 12.7631
142.328827 2.35
142.370346 9.019608
142.420471 5.265351
143.04776 14.68056
143.085815 439.438385
143.247543 11.00708
143.393311 6.840517
143.601089 3.027778
144.052277 76.734833
144.140015 14.76025
144.301224 16.22917
145.025238 248.445694
145.337006 5.669445
147.041977 223.040497
147.110809 1.720238
147.523361 9.523809
147.654877 12.53452
148.249496 12.08232
149.023895 107.144302
149.412933 4.4
151.053055 401.722412
151.123352 2.14881
151.181992 5.19853
151.218719 18.25333
151.233673 7.350877
151.306732 4.005952
151.644669 11.1713
152.061966 2749.197998
152.113403 18.35408
152.159561 6.541667
152.197128 5.020833
152.245026 11.67262
152.253586 12.67738
152.287125 18.3939
152.296783 14.70833
152.319931 34.1078
152.363434 14.49342
152.436096 3.625
152.476151 6.361111
152.532898 9.227151
152.621109 14.16098
153.069962 2367.490967
153.116425 17.045059
153.143967 17.32309
153.188553 2.449074
153.23822 9.166667
153.331833 31.21899
153.345963 23.06818
153.442886 43.02417
153.544418 10.415
153.569992 11.44365
153.703674 9.670635
153.742493 5.013889
153.768646 29.480061
154.307892 26.683201
154.53186 16.31373
155.046738 132.317001
155.386398 18.385559
156.058716 106.098
156.594391 2.720238
157.062515 336.314209
157.13475 10.96491
157.387604 16.354839
157.511963 8.592593
158.300797 5.025641
159.04332 90.024437
160.048172 40.975849
163.036606 2.669444
163.053543 26.645
164.345184 10.38851
164.354095 7.455883
165.069305 113.488503
165.685852 3.666667
166.073578 90.611603
168.055588 64.479591
168.288788 6.352941
168.332199 16.36096
169.064926 245.078995
169.283188 9.010715
169.500427 3.375
169.731247 3.4
170.071213 122.9319
170.399261 25.89868
171.043869 9.66821
171.07901 505.541992
171.184952 6.783046
171.294205 5.333333
171.526489 4.681667
171.546616 14.39126
171.799973 15.16162
172.580902 6.306159
173.056244 15.00287
174.772079 6.666667
175.035477 157.748596
175.550201 10.38667
175.568634 14.55784
177.840744 7.280303
178.679352 27.1875
179.951752 7.010135
180.068665 3.490385
180.503647 8.573413
180.568481 10.10526
181.00119 20.72854
181.064499 3168.449951
181.120331 26.963671
181.1297 4.001984
181.140167 10.77778
181.174606 5.371913
181.189056 29.475929
181.240433 20.372141
181.260818 2.367424
181.296616 7.410257
181.3311 28.741671
181.359207 20.66721
181.42926 9.866667
181.443527 13.01111
181.5271 14.10714
181.570755 6.740942
181.654465 7.486111
181.720245 18.736111
181.762405 16.164471
182.485336 10.45058
182.696106 3.483333
182.786011 37.387878
182.813141 5.416667
183.46167 18.25333
184.050156 602.912109
184.182999 13.26754
184.361526 6.446428
185.159714 4.010417
187.038879 60.836868
194.77272 3.686404
196.017014 8.948333
196.358719 6.135
196.636688 8.001126
197.059189 937.280701
197.100098 2.416667
197.169388 14.61404
197.212753 8.00641
197.360504 15.27244
197.829453 11.3344
197.911224 13.95076
198.066956 361.779907
198.196899 5.42803
198.529144 3.335526
199.075333 1061.848022
199.107971 2.016667
199.140823 3.1875
199.265091 4.8
199.304688 16.30225
199.35498 9.03728
199.392654 8.711957
199.47139 11.67738
199.589386 17.00321
199.619232 12.34491
199.684006 4.782407
200.228775 7.668333
200.330048 12.72115
209.055038 202.708099
210.072037 88.848167
210.119583 2.333333
212.043076 54.42786
212.090851 7.748333
212.179184 8.46558
213.31366 3.688725
217.988113 12.02315
224.726669 18.49781
225.052002 102.6549
225.504715 11.76179
226.063049 46.271511
227.069794 450.885101
227.594101 7.969086
235.791367 9.490196
237.055176 295.236908
237.122955 2.00463
237.171173 10.39394
237.462128 6.160088
240.03743 35.774818
255.064407 278.615509
255.148438 25.6147
255.245941 5.669445
255.369812 2.666667
255.464523 9.081667
255.758957 20.83333
267.826813 9.669444
643.768738 9.022223
1349.166382 3.777778
