>compound Masitinib
>formula C28H30N6OS 
>ionization [M+H]+
>parentmass 499.22745703209046
#inchi InChI=1S/C28H30N6OS/c1-20-5-10-24(16-25(20)31-28-32-26(19-36-28)23-4-3-11-29-17-23)30-27(35)22-8-6-21(7-9-22)18-34-14-12-33(2)13-15-34/h3-11,16-17,19H,12-15,18H2,1-2H3,(H,30,35)(H,31,32)
#inchikey WJEOLQLKVOPQFV
#Ion_Source LC-ESI
#Instrument qTof
#Compound_Source Isolated
#PI Sirenas
#Data_Collector Ed Esquenazi 
#Scan -1
#Precursor_MZ 499.228
#ExactMass 0.0
#Charge 1
#CAS_Number N/A
#Pubmed_ID N/A
#Smiles N/A
#INCHI_AUX N/A
#Library_Class 3
#SpectrumID CCMSLIB00000005888
#IonMode Positive
#UpdateWorkflowName UPDATE-SINGLE-ANNOTATED-BRONZE
#LibraryQualityString Bronze
#TaskID d19310cd93df49b68e9fcbec27720eb5
##Scan# 3
#SpectrumFile Masitinib.mgf
#LibraryName fda_library.mgf
#MQScore -1
#Organism fda_library
#TIC_Query 0
#RT_Query -1
#MZErrorPPM -1
#SharedPeaks 0
#MassDiff 0
#LibMZ -1
#SpecMZ 499.228
#SpecCharge 0
#internalFilename spec-00000.mgf

>collision 10
100.099083 1162.307007
100.161598 9.240196
100.189491 3.440476
100.220818 3.36218
100.325279 11.97348
100.431099 1.6875
100.443832 6.671875
100.520531 10.7451
100.651398 2.875
100.670593 12.75347
100.768349 3.358333
100.882561 6.782407
100.950333 12.27229
101.023605 8.333333
101.10746 509.460205
101.222847 10.18561
101.313591 10.04375
101.381958 10.75556
101.447037 14.72727
101.553635 12.78947
101.836296 10.66759
102.539642 7.078432
103.046066 26.85368
103.053093 96.13089
103.500137 10.7002
104.050316 76.220741
104.208618 2.333333
105.032333 129.877701
105.044434 617.004211
105.068268 182.247406
105.209976 13.48188
105.308685 4.361111
105.394112 5.185606
105.746002 8.453431
106.129448 4.75
107.058159 144.644897
109.010277 27.08424
111.089935 84.407982
112.096115 124.426201
113.802986 7.011364
116.048187 67.348488
117.055916 121.926003
117.408722 10.0
117.575943 4.4
117.595116 11.66786
117.626869 6.388889
118.04171 1514.918945
118.088226 10.6768
118.121796 4.008333
118.137344 3.367424
118.258408 2.669444
118.330299 9.024224
118.360573 5.666667
118.428711 6.449713
118.440315 16.94936
118.454811 14.48039
118.538582 8.647059
118.557465 6.673077
118.595345 10.66667
118.701454 7.2
118.880081 6.001984
119.049553 3296.725098
119.095558 11.165
119.103012 6.704545
119.179977 11.375
119.20192 10.4221
119.221283 3.402778
119.237221 15.2179
119.28212 22.07527
119.3545 7.347222
119.398865 30.803471
119.415222 6.011905
119.444321 9.481667
119.503456 13.10714
119.533768 18.14028
119.565643 10.66667
119.578613 4.358333
119.597641 8.403508
119.625038 17.5977
119.925049 10.3913
120.176559 6.355392
120.499107 4.958333
120.5317 8.698232
121.01329 33.666672
121.1511 5.054824
121.235291 11.19032
122.003151 141.087402
122.995956 11.30876
124.021935 401.046112
124.373466 11.66759
124.82093 2.14881
126.032692 25.32658
130.065964 46.4128
131.049438 713.762024
131.097412 5.416667
131.237381 7.382936
131.590683 5.338889
132.064713 40.7803
132.081741 82.520683
132.12999 3.080128
132.226257 3.0
132.509766 8.347222
133.075348 35.97094
134.000641 55.783772
135.013885 449.114685
135.061264 3.010417
135.095032 75.120262
135.117874 8.001666
135.259491 8.284091
135.324188 3.337121
135.361526 11.44907
135.368713 3.336538
135.437531 6.482143
135.474182 9.429762
135.547607 3.926282
136.021423 1987.733032
136.050781 20.92157
136.134811 7.507184
136.211929 4.675926
136.228165 15.05921
136.294861 8.506945
136.321579 10.6674
136.374802 14.76006
136.410675 2.341667
136.466095 18.70833
136.513123 6.371212
136.638596 11.03157
137.115845 7.935
138.013092 32.440861
138.284302 35.526669
139.730209 3.358333
143.318344 9.445371
144.03949 33.726669
145.04892 33.604939
145.085999 85.01844
145.13829 3.083333
146.008163 26.14583
146.070282 56.087009
146.095779 59.82473
146.206421 11.34543
146.379135 5.453432
148.698807 16.01042
149.016861 197.7323
149.026291 30.35833
149.556961 24.021049
149.569748 3.677083
150.268311 11.02422
150.359909 17.836809
150.392685 19.285721
150.409073 5.668104
151.032867 1446.119019
151.092499 14.34099
151.130005 8.400001
151.173965 13.43841
151.22937 3.36218
151.379639 14.72024
151.400925 18.385559
151.430527 15.61602
151.511978 11.00093
151.861832 18.298759
151.879028 32.484852
152.34375 7.700269
158.060577 41.864651
158.143173 10.68627
160.072067 34.33532
160.309128 5.630952
161.0177 45.702591
162.21582 16.219299
162.24144 15.70833
162.370941 13.66755
163.030197 323.631592
163.063232 2.678571
164.059845 17.35606
164.719986 7.03592
165.070236 86.559288
166.030548 33.71011
169.205475 3.027778
172.813721 9.001437
173.079208 21.14035
174.026947 45.387001
174.065247 35.760681
174.087784 79.446022
174.276825 2.520833
175.034485 189.054504
175.112549 2.0
175.28035 32.192669
175.952316 15.62972
176.027115 2917.861084
176.099106 2.0
176.117203 19.26882
176.174133 19.51222
176.191376 12.25397
176.205292 4.09375
176.230713 6.458333
176.256119 3.080128
176.278519 22.67063
176.36235 13.01282
176.413879 6.700758
176.477875 3.686404
176.547195 9.719017
176.569855 2.782408
176.736771 6.075617
176.810623 3.041667
177.044067 34.979172
177.070038 8.769231
177.358276 20.667271
177.686295 16.828279
177.779572 6.740942
177.811508 2.695513
177.979141 6.070402
178.040695 98.386192
178.078629 16.3869
178.154831 2.0
178.340668 15.77011
178.968369 7.429762
178.996292 4.774123
180.605652 5.705246
181.089645 19.26235
181.16391 3.075
182.094086 20.312941
186.089066 62.080132
188.026367 14.86833
188.058655 22.60745
188.129532 4.42803
188.899063 31.019079
189.137863 41.168419
190.061432 28.859529
190.147614 39.847759
190.214355 7.218137
190.580704 32.063679
191.217484 5.510417
191.312592 4.375
191.331116 6.001667
192.078369 62.009739
192.193451 10.85795
193.054123 10.45581
193.088501 41.652981
193.752518 27.233021
193.916733 6.958333
193.966568 3.926282
194.094757 284.489807
194.670715 1.6875
194.797104 8.698232
195.104355 662.88501
195.143188 8.680555
195.501617 12.425
196.470886 1.671296
198.095886 8.382936
200.21579 5.136111
202.041687 100.931801
202.061646 20.778851
204.07283 22.413361
204.084839 57.840279
204.260834 5.335526
204.952591 6.564103
206.095566 924.003906
206.139755 3.041667
206.309494 7.455883
206.365845 3.375
206.594727 3.857143
206.619629 9.429762
206.934494 9.340278
207.063248 60.411011
207.206375 5.782407
207.655807 6.348333
208.072403 127.405701
208.167236 19.682541
209.082687 6.136111
209.108704 236.599503
209.343826 9.677381
209.922913 11.00556
210.089264 19.000509
210.876633 8.023809
213.103912 14.18561
215.866959 7.656609
216.071487 72.006752
216.081635 60.919998
217.081161 43.200001
217.132019 106.0802
217.690262 13.40076
218.09581 29.682619
219.063202 17.420139
219.09169 211.679596
220.106873 68.637123
220.208527 4.297619
220.95343 26.884359
220.98259 20.371429
221.106354 298.209198
221.189423 3.703704
221.507126 13.8713
221.56987 3.708333
221.717804 19.781639
221.790329 22.74766
221.830734 19.014441
221.858795 15.93307
221.894958 24.74081
221.929916 9.240384
222.051437 76.643356
222.091293 637.100525
222.183914 4.047619
222.226837 5.185606
222.294418 21.57115
222.334396 11.49123
222.442734 18.255951
222.471283 11.93889
222.58316 6.98077
222.619736 2.680556
222.656067 7.333333
222.731155 10.57044
222.751526 11.3952
222.80365 14.72459
222.824463 9.335318
222.9077 32.281219
222.937119 39.894081
222.974518 7.280303
222.989517 4.259615
223.025436 10.96491
223.098389 3977.10791
223.162033 30.429251
223.188751 6.986364
223.208496 10.72024
223.224197 21.448771
223.243057 16.00219
223.273911 34.066101
223.325851 22.600309
223.341751 3.802778
223.367813 2.666667
223.384933 23.9081
223.454483 28.198721
223.47702 10.00735
223.513611 7.656609
223.541962 11.88005
223.555069 8.520833
223.571854 18.12171
223.642929 17.357559
223.716919 13.0732
223.737137 24.44381
223.752869 10.94737
223.794373 13.67302
223.872452 5.019737
224.050064 120.717697
224.106613 8286.751953
224.168106 31.5625
224.187225 41.39901
224.218887 15.41667
224.250107 34.230591
224.27388 33.581009
224.313843 82.979424
224.336533 66.159027
224.369781 57.538731
224.397446 25.73333
224.413239 7.037281
224.446182 66.006668
224.477081 9.0
224.503662 41.685799
224.529861 25.864531
224.602798 26.18795
224.628754 35.795792
224.718552 20.17437
224.928207 23.61076
225.076477 18.33386
225.202576 1.777778
225.770218 5.629902
225.78186 11.72024
226.064056 7.033333
226.171356 18.75556
226.404327 9.063725
226.425232 12.62703
228.721954 8.573413
230.240707 15.15278
230.622299 6.001984
231.055069 31.335529
231.067017 23.0385
231.087158 57.157982
231.806656 3.678571
232.060196 18.673479
232.078888 32.523548
233.080109 32.724739
233.106262 50.409618
233.246384 6.25926
233.71759 5.573412
234.112473 66.745247
234.131958 6.573412
235.086716 223.731796
235.110199 47.673729
235.266083 13.73615
235.2836 18.69504
236.05806 10.62703
236.362778 11.49667
236.517899 15.56446
237.039642 60.319592
237.102554 232.875
237.333572 3.640152
237.390808 2.347222
237.667389 7.054487
237.862747 3.675
237.943237 7.533333
238.034042 66.923019
238.066055 72.49157
238.111023 163.067596
238.996185 4.669445
239.066833 60.351719
241.072403 6.446428
241.687378 12.04412
243.084991 15.76025
244.668213 7.190217
245.03717 44.413849
245.070618 75.482437
245.088669 14.63021
245.406143 18.263889
246.078522 162.568298
246.206757 12.11265
246.317245 9.520833
246.634521 7.714285
247.087524 1097.765991
247.2659 20.619049
247.295639 15.67432
247.312057 9.694819
247.449524 10.41667
247.585693 4.335784
247.635651 20.413361
247.66333 16.847219
248.687088 11.7631
248.758423 9.057693
249.043915 7.843137
249.100693 465.519592
249.169006 4.185606
249.456345 7.041667
249.532883 7.969086
249.741653 14.675
249.970123 11.13611
250.037537 18.80167
250.561493 8.560185
250.666122 10.45333
250.754272 18.38225
251.066162 39.816669
252.046005 319.264709
252.084671 82.224808
252.277008 16.68269
252.370956 11.67
252.456406 18.04167
252.556046 2.14881
253.075653 56.73399
254.072006 28.258511
259.696411 10.77083
259.808533 9.561992
259.853455 15.72202
260.089844 109.635101
261.102325 3694.552002
261.192627 1.833333
261.228119 3.852273
261.392273 13.66975
261.42038 4.003205
261.513214 7.333333
261.639801 14.00085
261.662323 11.82315
261.755646 6.25926
261.977539 13.85192
262.183685 5.095238
262.256195 5.777778
262.377472 13.44167
262.422577 4.44079
262.452606 7.653986
262.577393 11.70614
262.632019 18.91618
262.682983 14.73986
262.820038 3.958333
262.913086 7.333333
263.212158 6.019737
263.269012 6.09375
263.347626 2.666667
263.432831 4.225
263.455139 4.337963
263.501007 16.408501
263.540161 2.782408
263.651306 4.115741
263.705292 18.928221
263.74295 12.00735
263.805115 4.375
263.895538 8.673612
264.043121 48.284191
264.059021 190.741196
264.113831 554.105225
264.155548 4.041667
264.325287 3.802778
264.448212 17.785351
264.670349 6.102564
264.743927 10.47704
264.981995 18.76115
265.073608 162.776505
265.089233 29.70476
266.076843 117.413498
266.298431 11.08013
266.325562 9.671296
266.495697 4.034091
267.030334 4.898148
267.094208 23.979879
267.115173 30.370541
267.131531 11.63158
269.072296 35.211731
272.126221 43.30637
277.076996 14.3344
278.039978 23.810961
279.058228 318.779297
279.202454 8.027778
279.270264 13.90542
280.225311 14.82051
280.672638 6.606061
280.830505 12.33621
281.084015 704.793823
281.127899 2.35
281.403595 2.833333
281.915924 8.009616
282.039062 63.554939
282.068665 237.116302
282.20874 8.416667
282.419525 16.5977
282.61731 13.40076
282.641083 9.57615
283.096283 13.36742
284.279236 4.333333
287.098663 40.008339
288.112396 141.386398
292.09549 43.16013
293.04007 33.016331
293.432831 10.33929
294.094604 64.835953
295.028412 18.70833
295.091827 298.91449
295.61792 13.78922
295.71405 4.703703
299.103943 57.007931
303.100098 8.284091
306.88205 5.541667
307.063934 35.102051
307.269684 5.080128
307.635162 5.335318
309.077911 97.370003
310.135895 13.41588
311.138062 27.844299
321.015625 55.13493
321.082001 132.268997
322.130341 125.803001
322.660706 4.59375
323.873108 13.40833
324.437134 5.033333
325.114319 18.00333
332.63739 20.961599
336.128937 27.361111
337.114166 81.541069
337.896423 6.673611
338.127014 65.508911
338.147064 139.057404
338.363098 10.71902
339.110199 17.39706
340.150635 2.041667
341.088959 23.33523
341.145355 33.770111
344.120697 36.035309
347.134552 22.01333
348.124298 27.15909
348.148163 44.404999
349.11557 39.226231
349.165192 25.525
350.112976 25.040421
351.121582 430.367615
351.199127 2.111111
351.254242 6.964285
351.373993 18.703791
351.425903 6.146739
351.450073 7.816667
351.831207 5.589031
351.902039 15.6713
352.777222 7.673077
353.555237 4.335145
354.104919 13.27348
355.068756 53.959621
355.845703 6.893518
356.110931 229.279495
356.403992 24.0355
356.493317 22.285709
356.536896 7.6875
356.790955 2.347222
363.876556 4.958333
364.045776 4.37037
365.090057 71.255997
365.139191 1342.786987
365.20166 6.361111
365.254852 3.047619
365.507538 8.338889
365.712463 7.564815
365.766205 5.898148
365.806915 13.86882
365.913361 2.367424
365.954468 3.857143
366.053131 19.712959
366.285706 4.120098
366.752411 3.337963
366.826385 6.001984
366.978912 12.02885
367.039001 21.52478
367.245514 7.352941
367.34552 8.347826
368.096741 5.201389
368.493591 7.355392
369.021027 4.003205
369.077484 49.951431
369.117157 60.34436
369.361908 10.68889
370.04425 14.73214
370.125427 74.354317
371.131714 948.35022
371.222992 2.670455
371.300568 8.534722
371.363861 12.02899
371.451294 21.81481
371.507629 5.625
371.739532 14.8442
371.92691 15.02671
372.175415 10.24242
372.92746 9.445371
373.189972 6.0625
376.537109 10.74898
378.85614 9.004167
378.910309 7.757883
379.459381 14.875
379.682709 15.66927
379.768555 17.075001
379.804718 5.444445
379.83197 10.05357
380.645905 9.405142
381.121063 222.001007
381.216248 11.66667
381.467621 5.742284
381.918335 23.78009
382.101746 1285.625
382.154907 4.020833
382.249847 19.972269
382.887939 3.555556
383.073059 27.351191
383.136627 108.015999
383.174988 10.67188
383.46106 9.240384
383.610962 10.83841
383.803925 7.280303
384.337402 9.382936
384.558807 19.48243
384.7565 3.028846
384.804321 13.44444
385.295959 17.66848
387.576508 2.166667
388.607941 26.00177
393.140411 1.672619
396.08606 9.338889
396.126373 4.671297
396.292236 11.722
396.412598 11.02083
396.479218 13.01754
396.534637 2.00463
396.561279 39.43301
396.598785 30.91667
396.622559 57.268688
396.649811 44.270779
396.686615 77.527023
396.741333 19.708651
396.78894 25.769461
396.845215 31.850611
396.867157 14.38889
396.924744 44.58392
396.960876 48.975498
397.033478 73.060493
397.103424 118.076202
397.170959 52.07003
397.206543 3.4
397.235565 93.605888
397.269318 6.351191
397.315918 5.115741
397.386902 5.801667
397.642609 43.4884
397.720001 9.520833
397.734192 22.24885
397.785065 16.560869
397.818634 52.74118
397.85202 17.99511
397.984497 20.00388
398.280579 15.37933
398.386597 4.814815
398.455688 2.666667
398.6008 10.535
398.638123 30.04463
398.664276 8.108871
398.706085 23.716351
398.897888 31.18261
399.024933 28.506229
399.05423 28.04167
399.080475 37.7883
399.128296 39193.210938
399.278168 29.796049
399.314209 25.049999
399.369385 36.267441
399.404144 98.99173
399.458679 95.877831
399.493652 154.453796
399.539825 127.833099
399.561981 118.098701
399.5914 37.753948
399.619843 194.874893
399.651123 111.695297
399.690979 135.922699
399.712128 26.70833
399.743835 172.617004
399.77713 113.383598
399.805664 63.460419
399.848572 41.866051
399.875549 101.6539
399.933777 95.309837
400.081451 118.894699
400.259979 97.97921
400.306213 45.59586
400.337708 54.936531
400.413208 99.420807
400.710327 60.106121
400.823334 21.917061
400.953979 5.225
401.004883 34.488892
401.057556 25.15904
401.284912 1.720238
401.451477 9.054487
401.691559 7.704166
401.911346 30.56407
401.977814 3.490385
402.272461 3.926282
402.378662 3.916667
402.515961 27.50634
402.633881 6.306159
402.797577 20.777781
403.152344 10.54688
404.09079 13.64651
404.289093 3.458333
405.311951 3.791667
406.292542 5.041667
406.383728 6.667929
406.99411 4.8
411.694702 19.8442
412.645233 14.68333
412.967926 17.343901
413.147919 38.34864
414.145294 63.569721
415.153351 40.136391
415.374573 3.002778
415.792999 5.454545
417.157562 21.859529
417.245361 16.605551
422.128601 16.909479
422.223511 18.765949
422.801178 8.111112
424.140839 33.707069
438.167633 55.21336
442.168488 85.123299
442.937836 25.040409
443.142426 4.333333
453.237976 9.858334
456.177826 19.09145
470.201874 38.768711
481.213776 131.945099
481.603424 13.38075
482.125427 11.72917
482.477661 21.00071
497.207123 24.267111
499.224243 441.213593
499.474976 23.952921
499.785522 4.107143
500.067993 12.41554
500.379547 11.3952
500.732513 14.0336
514.151428 24.01016
982.035583 5.932018
1310.712524 23.223761
1688.656982 26.01639
