>compound Methyclothiazide
>formula C9H11Cl2N3O4S2
>ionization [M+H]+
>parentmass 359.96225
#inchi InChI=1S/C9H11Cl2N3O4S2/c1-14-9(4-10)13-6-2-5(11)7(19(12,15)16)3-8(6)20(14,17)18/h2-3,9,13H,4H2,1H3,(H2,12,15,16)
#inchikey CESYKOGBSMNBPD
#Ion_Source LC-ESI
#Instrument qTof
#Compound_Source Commercial
#PI Dorrestein
#Data_Collector Garg_Neha
#Scan -1
#Precursor_MZ 359.964
#ExactMass 358.957
#Charge 1
#CAS_Number 135-07-9
#Pubmed_ID N/A
#Smiles C1(=C(C=C2C(=C1)S(N(C(N2)CCl)C)(=O)=O)Cl)S(=O)(=O)N
#INCHI_AUX N/A
#Library_Class 1
#SpectrumID CCMSLIB00000078644
#IonMode Positive
#UpdateWorkflowName UPDATE-SINGLE-ANNOTATED-GOLD
#LibraryQualityString Gold
#TaskID 77f51c88eb8b467eb4a01dd2d0cb90d2
##Scan# 1161
#SpectrumFile Plate10_21_40_GC2_01_15744.mzXML
#LibraryName FDALibrary_2_04302014.mgf
#MQScore -1
#Organism FDALibrary_2_04302014
#TIC_Query 0
#RT_Query -1
#MZErrorPPM -1
#SharedPeaks 0
#MassDiff 0
#LibMZ -1
#SpecMZ 359.964
#SpecCharge 0
#internalFilename spec-00000.mgf

>collision 10
48.921909 164.0
49.693378 168.0
62.293953 176.0
71.755104 172.0
76.602203 164.0
96.983757 148.0
99.346123 196.0
105.004883 160.0
105.043892 160.0
112.365707 188.0
120.174324 152.0
120.993912 220.0
121.153778 148.0
121.976692 160.0
123.992935 136.0
124.87104 212.0
129.025223 408.0
129.961655 184.0
130.002869 176.0
131.01886 144.0
132.00354 184.0
137.018372 164.0
138.007965 148.0
142.006683 308.0
143.05455 176.0
144.003571 192.0
148.846664 160.0
149.223282 216.0
149.998215 300.0
155.005875 176.0
155.983353 384.0
156.973297 356.0
157.016312 616.0
158.000748 468.0
158.968674 148.0
159.011963 264.0
159.965546 208.0
161.971634 168.0
163.138916 164.0
166.03067 136.0
166.957581 148.0
167.01297 168.0
169.00972 144.0
171.953522 164.0
171.97261 296.0
175.003357 172.0
175.856857 152.0
181.01709 144.0
181.023666 140.0
182.000412 140.0
182.9785 144.0
183.963638 216.0
183.999023 164.0
184.861252 148.0
184.974777 628.0
185.977142 280.0
186.974243 444.0
187.953751 212.0
187.984756 184.0
189.957138 348.0
199.953995 152.0
201.988541 312.0
204.483017 132.0
204.917938 140.0
204.983459 2072.0
205.950943 208.0
205.975739 164.0
206.981262 400.0
208.975327 176.0
212.973404 212.0
213.9702 448.0
216.958771 616.0
217.367203 152.0
217.986801 144.0
218.953064 168.0
220.978775 1576.0
221.047684 140.0
222.976196 944.0
229.911514 188.0
229.988449 572.0
230.950836 176.0
231.928833 156.0
231.993408 264.0
232.978775 216.0
234.978958 260.0
236.923355 204.0
236.95697 308.0
238.918839 140.0
245.98967 408.0
247.948761 168.0
247.975143 152.0
248.961716 176.0
249.964859 180.0
250.931839 144.0
252.952255 396.0
253.948624 236.0
254.946167 392.0
260.023407 196.0
263.510803 188.0
264.503632 196.0
264.945831 396.0
265.498627 196.0
265.960205 184.0
266.491577 148.0
266.94754 160.0
268.943542 3208.0
269.92276 156.0
269.946686 196.0
270.866394 140.0
270.938751 784.0
272.940552 140.0
280.953491 236.0
282.931793 152.0
282.958405 140.0
284.921204 148.0
284.953278 156.0
286.954834 3424.0
287.96109 536.0
288.949982 1592.0
304.977905 156.0
309.41861 172.0
309.965027 184.0
310.003571 152.0
311.896149 324.0
312.081573 176.0
313.886658 140.0
314.925446 164.0
319.537354 188.0
328.920776 1088.0
329.927643 292.0
330.9198 612.0
330.962097 188.0
331.925934 152.0
342.937561 148.0
343.943085 208.0
344.932892 124.0
348.94931 328.0
359.840973 204.0
359.96225 2440.0
360.963562 628.0
361.962219 1944.0
362.960968 380.0
363.956635 180.0
395.275146 148.0
1326.960083 196.0
1774.355957 204.0
1985.152954 152.0
1995.132812 184.0
