>compound Desferrioxamine E
>formula C27H48N6O9 
>ionization [M+H]+
>parentmass 601.3555535680905
#inchi InChI=1S/C27H48N6O9/c34-22-10-14-26(38)32(41)20-8-3-6-18-30-24(36)12-15-27(39)33(42)21-9-2-5-17-29-23(35)11-13-25(37)31(40)19-7-1-4-16-28-22/h40-42H,1-21H2,(H,28,34)(H,29,35)(H,30,36)
#inchikey NHKCCADZVLTPPO
#Ion_Source DI-ESI
#Instrument Hybrid FT
#Compound_Source Isolated
#PI Dorrestein/Moore
#Data_Collector Roland Kersten
#Scan -1
#Precursor_MZ 601.0
#ExactMass 600.348
#Charge 1
#CAS_Number N/A
#Pubmed_ID N/A
#Smiles N/A
#INCHI_AUX N/A
#Library_Class 3
#SpectrumID CCMSLIB00000075314
#IonMode Positive
#UpdateWorkflowName UPDATE-SINGLE-ANNOTATED-BRONZE
#LibraryQualityString Bronze
#TaskID 216f7e25eb284d139eda10f0ea06e32c
##Scan# 23
#SpectrumFile DesE_FT_601mz.mzXML
#LibraryName gnps_library.mgf
#MQScore -1
#Organism empty
#TIC_Query 0
#RT_Query -1
#MZErrorPPM -1
#SharedPeaks 0
#MassDiff 0
#LibMZ -1
#SpecMZ 601
#SpecCharge 0
#internalFilename spec-00000.mgf

>collision 10
165.083313 1321.668579
165.293442 1666.040161
166.625168 1520.837402
166.626114 1633.007446
166.760468 1602.228027
166.977676 1152.070923
167.160461 1264.002686
167.46608 1302.491943
167.910919 1500.435669
167.935577 1601.352173
168.206085 1426.788086
168.495682 1498.196655
168.592728 1867.559937
169.100677 1554.143188
169.813919 1273.041138
169.961029 1677.227783
170.219482 1307.889893
170.240875 1504.977295
170.514252 1366.284546
170.527298 1588.939819
170.952438 1284.418945
171.185089 1840.24292
171.559738 1424.291016
171.640091 1377.13501
171.740479 1314.776489
171.807724 1441.618652
171.824234 1283.782959
172.150726 1306.541626
172.373413 1436.24585
172.41806 1424.568604
172.647003 1409.354004
172.968658 1392.562012
173.043869 1397.246338
173.363464 1673.023315
173.380478 2126.989746
173.996582 1353.786743
174.462906 1734.81543
175.617798 1701.843506
175.681473 1534.094849
175.975006 1602.839844
175.977829 1378.750244
176.547562 1281.575073
176.667297 1476.273926
176.903458 1608.513062
177.036819 1813.730469
177.121262 1533.749268
177.50087 1336.21814
177.834183 1284.348389
178.045517 1279.912231
178.13652 1485.994751
178.874832 1334.248657
178.880341 1363.963379
178.887543 1561.643555
179.391739 1567.425049
179.458267 1551.453369
179.862259 1536.007935
180.108002 1527.059448
180.135406 1506.359985
180.26825 1714.630615
180.484406 2045.215454
181.335007 1322.341797
181.506866 1233.625244
181.550766 1490.558472
181.626511 1470.45752
182.278915 1487.613281
182.45282 1432.834351
183.031311 1301.109009
183.721634 1525.23999
183.906998 1499.017578
184.049652 1367.267578
184.423935 1627.112061
185.283218 1491.880127
185.337433 1400.021851
185.9272 1451.297852
186.154968 1651.343872
186.187927 1677.4104
186.411438 1419.657227
186.425034 1403.126465
186.577011 1461.460083
186.785309 2111.140381
187.318909 1669.948975
187.518204 1550.979248
187.541626 1339.209473
187.741104 1475.797363
187.902405 1659.710571
187.956833 1593.717651
188.459885 1442.126343
188.466248 1492.031616
188.852463 1561.098267
189.153305 1429.727295
189.421143 1325.678955
189.471954 1631.481201
189.523117 1191.320923
189.740341 1482.363159
189.860718 1358.070801
189.872574 1387.267212
189.885193 1384.241333
190.141266 1453.309082
191.547943 1611.967163
191.572296 1330.05896
191.77301 1556.136353
192.02063 1266.334351
192.639603 1393.187622
192.649704 1483.860352
192.791519 1553.643066
192.89711 1215.099487
192.903458 1334.038818
192.918686 1689.137451
193.310669 1615.069946
193.564102 1208.725586
193.796082 1694.893677
194.022202 1456.383179
194.024551 1860.039185
194.2173 1353.608765
194.34436 1409.783081
194.534256 1438.264771
194.626556 1533.258301
195.474396 1407.609863
195.545959 1234.095459
195.731735 1607.903198
195.771713 1287.656006
195.982086 1249.189453
196.089325 1502.033813
196.371033 1566.664917
197.019196 1281.852661
197.026642 1572.96521
197.763611 1444.658813
197.909729 1171.316284
197.961365 1405.794312
198.006622 1297.154297
198.111053 1405.873291
198.182251 1342.198975
198.236435 1320.964111
198.453232 1441.347656
198.806839 1551.858643
198.819809 1164.372803
198.856827 1555.118652
199.139328 1462.761108
199.167755 1838.13623
199.653214 1137.719727
199.653625 1134.615479
199.713348 1336.302368
200.036072 1510.258545
200.149139 1450.024658
200.637009 1286.076904
200.680405 1270.76355
200.785294 1484.327393
201.042511 1344.374268
201.50354 1274.13916
201.504456 1425.343384
201.630981 1638.772949
201.690338 2049.830811
202.490784 1246.586548
202.577118 1687.169312
202.628922 1402.98938
202.761108 1572.562622
202.960037 1454.144409
203.172226 1382.913208
203.259171 1703.571167
203.307877 1597.437744
203.497147 1404.05249
203.573639 1208.392456
203.650635 1493.006836
203.75441 1421.917236
204.343033 1254.27832
204.47168 1437.444458
204.576843 1443.942139
204.77037 1233.422363
205.431946 1499.120239
205.455444 1838.389526
205.470535 1636.591797
205.911621 1745.462769
206.078644 1568.706299
206.137283 1427.641724
206.254547 1356.226562
206.44165 1167.47876
206.468353 1327.259766
206.767685 1596.102661
207.061462 1249.324097
207.443176 1838.585083
207.589951 1440.687988
207.844208 1661.263062
207.920563 1718.877808
207.98938 1756.253662
208.262131 1378.543701
208.323257 1460.275879
208.528595 1645.624268
208.53624 1497.63208
208.639603 1479.641846
208.87027 1214.462158
209.182861 2071.801025
209.455795 1598.190063
210.160583 1527.561401
210.415726 1538.897827
210.545578 1361.054688
210.615204 1536.579224
210.898132 1387.028687
210.916473 1592.12793
210.969864 1754.100586
211.303986 1516.875366
211.427658 1480.987183
211.755737 1426.946533
212.051086 1314.098633
212.074219 1434.651733
212.256912 1390.66394
212.277481 1926.034058
212.298691 1249.270996
212.637665 1293.102417
212.638519 1345.676392
212.792603 1387.000366
213.030197 1223.309448
213.032028 1395.481812
213.065247 1500.444702
213.10466 1551.781372
213.184372 1602.072876
213.485062 1264.921509
213.75502 1396.837769
213.760101 1468.764893
213.927338 1520.831421
214.590149 1428.321411
214.634598 1965.815308
214.746445 1519.504517
214.998611 1334.095825
215.018158 1754.387573
215.054138 1413.699341
215.421494 1716.58313
215.480988 1483.271362
215.774002 1398.50415
216.823486 1887.926636
216.824661 1166.457886
216.932648 1420.890747
217.10083 1356.014526
217.236053 1103.663818
217.264069 1696.755737
217.495575 1398.976196
217.597458 1313.220215
217.650558 1792.965698
217.672882 1288.771484
218.257294 1299.187866
218.295334 1572.388184
218.692245 1339.5625
219.101456 2124.534668
219.120087 1245.3479
219.574066 1587.659546
219.595795 1330.980957
219.714996 1387.807251
220.507584 1633.952271
220.626602 1336.967651
220.639954 1272.243774
220.878693 1731.376221
220.942108 1682.889893
221.011459 1462.658569
221.507843 1379.617676
221.728409 1585.901978
221.955917 1519.659302
222.21022 1826.5802
222.282852 1313.765991
222.314774 1794.464966
222.358093 1600.714355
222.876923 1357.010498
224.195572 1374.302856
224.476624 1250.648193
224.487839 1441.779663
224.649506 1310.01001
224.801788 1568.387451
225.112701 1442.157104
225.486115 1838.417969
225.542938 1398.005493
225.623383 1284.95874
225.942566 1675.212158
226.173523 1340.641846
226.182526 1315.216675
226.403076 1479.667358
226.422058 1576.761108
226.675354 1600.250488
226.680313 1616.052612
227.434265 1509.477417
227.643204 1428.263672
227.92334 1330.777222
228.663147 1450.345459
229.003693 1573.993408
229.012894 1429.175415
229.164978 1388.301514
230.111877 1504.574707
230.262085 1396.731689
230.696106 1431.686523
230.795242 1309.791626
231.159164 1369.386108
231.358154 1477.927856
231.59285 2156.459473
231.643753 1660.747681
231.842224 1229.592407
232.411057 1244.938477
232.532104 1591.807251
232.91658 1311.220093
233.450043 1392.185181
233.475922 1280.646118
233.724228 1544.607178
234.01886 1714.106934
234.150711 1488.977661
234.377014 1926.153931
234.46492 1442.088989
234.854767 1718.940796
234.903671 1313.835571
234.988464 1502.151978
235.660034 1383.22522
236.192032 1584.310913
236.712372 1528.505859
236.881348 1544.978149
236.897583 1324.542725
237.161926 1524.335327
237.269485 1405.636963
237.428864 1271.438843
237.783142 1380.783081
237.95575 1460.938965
239.42897 1519.408936
239.744308 1764.210327
239.856537 1452.566284
240.106339 1318.724976
240.72879 1489.989014
240.956711 1800.771729
240.995438 1317.261719
241.116028 1578.184448
242.010834 1440.022461
242.079346 1433.885132
242.350891 1468.733765
242.445251 1608.109131
242.890594 1405.06958
243.545044 1513.801758
243.553665 1543.410034
243.617554 1130.163818
243.744202 1394.849365
244.058823 1640.944824
244.193527 1414.475586
244.428116 1478.275391
244.543686 1936.561279
244.704544 1375.248413
244.723343 1288.793213
244.874481 1551.884155
244.982895 1316.954712
244.990051 1471.354004
245.254883 1127.365234
245.505997 1441.08252
246.212708 1509.904785
246.371017 1450.923706
246.954712 1359.849609
247.09407 1339.188721
247.210373 1224.383911
247.211334 1087.473755
247.291275 1641.780029
247.354401 1461.71521
247.585251 1521.143677
247.98587 1325.243042
248.197479 1384.969849
248.277374 1489.794067
248.429977 1418.87561
248.544449 1177.998535
248.58963 1529.845093
248.612732 1543.330933
248.821686 1357.261108
249.068115 1381.859009
249.133331 1212.3573
249.171936 1283.739868
249.182968 1659.739624
249.544189 1464.793701
249.560608 1448.132812
249.827164 1282.647461
250.003998 1207.243042
250.282608 1448.501343
250.463013 1350.380127
250.741394 1517.151367
250.907959 1343.625854
251.319626 1604.916504
251.421402 1473.3302
252.380676 1470.529297
252.419861 1397.305664
252.527527 1498.875977
252.665787 1473.388672
252.899567 1508.945435
253.106705 1671.03186
253.113998 1427.367798
253.228638 1303.0354
253.975586 1399.315918
254.046371 1636.877686
254.129456 1720.033203
254.132172 1620.346069
254.181229 1659.915771
254.334412 2132.844482
254.361542 1486.614746
254.77597 1348.232422
254.88031 1870.061279
255.363205 1270.806519
255.402969 1554.882324
255.57515 1394.112671
255.941864 1474.071533
255.942352 1480.760132
256.379181 1525.449829
256.508301 1705.727539
256.662384 1460.314941
256.711395 1575.857178
257.008209 1702.186523
257.148071 1326.139038
257.289673 1560.77356
257.317749 1467.66626
257.442291 1141.094482
257.62973 1193.490112
257.7341 1498.686768
259.109161 1284.172974
259.256042 1712.334473
259.698334 1473.779663
259.715393 1319.416504
259.891571 1443.783203
260.296631 1275.799561
260.557587 1689.465942
260.58783 1406.384766
260.588898 1191.82666
260.626038 1560.873047
260.754395 1432.062134
260.773041 1336.427612
260.777679 1315.984741
260.811005 1270.153076
260.854462 1586.162964
261.410187 1393.447754
262.80127 1767.040771
262.942505 1685.240845
263.560089 1337.856689
264.037354 1547.980347
264.076324 1435.449097
264.165924 1646.983765
264.758392 1316.795044
265.38092 1765.239868
265.55191 1185.767944
265.992615 1477.377808
266.107452 1868.216309
266.366608 1637.704224
267.042633 1412.373047
267.417114 1300.91333
267.668549 1390.959595
267.68692 1327.761108
268.036713 1311.64563
268.447662 1343.095703
268.638702 1360.470459
268.913025 1171.223389
269.016144 1290.210449
269.071442 1465.062378
269.110565 1245.661865
269.523163 1704.490845
269.710632 1483.935425
269.869537 1557.892578
270.110443 1703.182495
270.132935 1374.22229
270.365479 1229.523071
270.788452 1474.675537
272.256012 1347.224731
272.418121 1512.103638
272.606415 1397.194214
272.90332 1181.832397
273.483765 1501.549438
273.960846 1560.41687
274.205109 1572.35791
274.403809 1856.411865
274.492523 1402.804688
274.718872 1347.552734
274.775513 1310.740112
274.837769 1551.009888
275.081146 1298.243774
275.208282 1406.36792
275.50885 1496.094849
276.036377 1702.543335
276.078979 1747.863159
276.148865 1409.782227
276.205292 1421.979736
276.242767 1315.609497
276.518036 1505.822754
276.809601 1359.860352
276.965118 1570.196045
277.099731 1185.50769
277.467621 1420.728027
277.953857 1733.906982
278.029205 1359.17749
278.278595 1776.045044
279.13681 1618.617798
279.249634 1357.203125
279.486023 1418.001343
279.75061 1828.119995
279.935486 1449.65332
279.998749 1555.586914
280.02774 1640.581787
280.126129 1191.544189
280.12674 1198.952515
280.24231 1376.295898
280.437958 1292.829834
280.933228 1395.439697
281.240509 1539.175171
281.272461 1177.140503
281.27533 1448.714722
282.161346 1786.737915
282.37851 1381.276489
282.406525 1482.389526
282.903748 1865.573608
283.127869 2220.407471
283.129089 3860.92627
284.394928 1393.796387
284.41687 1372.678345
284.662811 1595.277954
285.128052 1205.099609
285.174774 1320.906006
285.32251 1691.406738
285.407349 1349.645386
285.753418 1408.456177
286.41098 1774.412964
286.503143 1469.191895
286.958832 1472.775757
287.029144 1380.546753
287.733856 1765.755493
288.704315 1347.960693
288.843475 1578.759033
289.169342 1519.513184
289.382507 1539.206299
289.390656 1437.15979
289.794128 1531.334717
289.848114 1166.312256
290.519226 1425.021606
291.246033 1961.956543
291.332397 1282.56311
291.55365 1508.792236
292.024323 1511.705688
292.312927 1613.488037
292.92041 1343.234131
293.544678 1486.767334
294.018585 1340.806274
294.202698 1416.053223
294.55603 1443.570312
294.722626 1659.456909
294.900848 1520.597046
294.919464 1573.898193
295.37796 1390.092407
295.45813 1744.946411
295.931671 1811.995605
296.263733 1436.179688
296.480255 1517.792236
296.581787 1491.295166
296.657928 1350.727905
296.72052 1508.237915
297.536713 1258.655396
297.604919 1193.914795
298.14502 1809.050903
298.434204 1592.086304
298.794281 1641.282959
299.210266 1359.063721
299.673706 1326.631958
299.974335 1285.423584
300.121399 1652.216675
300.154419 1525.780884
300.207031 1330.79834
300.217621 1509.103638
300.316315 1373.219604
300.530945 1460.612915
300.657501 1392.706787
301.139587 2738.56543
301.656982 1413.468262
302.14801 1245.167725
303.117676 1282.632568
303.154205 1372.883667
303.574707 1345.029907
304.358521 1331.799683
306.002136 1624.499756
306.799713 1446.71814
306.953796 1680.45105
307.586792 1749.306763
308.754272 1825.253662
310.566223 1211.584839
310.710968 1749.425171
311.47821 1340.14978
311.821716 1451.114014
311.873718 1589.612915
312.173889 1461.500366
312.26712 1581.063599
312.470306 1475.935791
313.01355 1498.641968
313.112549 1365.419556
313.322327 1318.514771
313.741333 1389.483521
313.911316 1568.758545
313.918427 1554.830078
314.166321 1321.263306
314.307526 1395.19751
315.927002 1771.119385
316.448029 1628.938232
318.486969 1704.863525
318.509827 1832.175293
319.344299 1688.651123
320.605438 1483.43042
320.620636 1334.381226
320.900208 1385.798218
321.125916 1995.585083
321.203766 1433.502441
322.321503 1630.385254
322.701294 1715.134399
323.233826 1739.521729
324.744141 1577.539185
324.747314 1311.960205
325.312164 1730.453247
325.485596 1636.914307
325.499451 1486.640625
325.55423 1478.211914
326.175629 1475.329224
326.322479 1628.911255
326.974823 1349.064331
328.426239 1620.695679
328.5513 1546.232544
328.59552 1652.859131
328.936646 1242.148438
329.126068 1330.204346
329.144012 1931.626465
329.19751 1775.708984
329.510773 1531.886963
329.841919 1248.196777
330.315857 1314.59314
330.770355 1373.96521
330.84906 1580.754517
331.28833 1725.999023
332.288025 1321.096558
332.923676 1352.302612
334.574463 1281.070068
337.4599 1551.866089
337.530396 1588.858887
337.913422 1393.196411
338.360962 1518.0979
338.474487 1414.415527
338.786346 1550.396606
338.788818 1388.978394
339.338928 1545.039795
339.636108 1618.364502
340.566925 1596.408569
340.771332 1452.35437
341.057007 1782.553223
341.328247 1472.892212
341.477539 1400.28064
341.659973 1491.700928
341.925354 1837.912231
342.393341 1690.785156
342.609711 1736.609497
342.766754 1278.964111
343.447174 1389.136597
343.664825 1558.191162
344.018219 1570.685059
344.137299 1470.591309
344.275879 1422.627197
345.023499 1644.031128
345.490845 1678.480713
345.618652 1462.250488
345.915741 1918.642822
345.995514 1362.789062
346.59375 1320.777832
346.687225 1810.745483
348.104126 1483.796265
348.398071 1493.602783
348.528656 1498.794067
348.735016 1513.606323
348.736755 1233.421875
349.447327 1515.707031
350.720062 1457.753296
351.705078 1396.890259
352.108124 1543.93103
353.611969 1435.351196
354.03598 1416.691772
354.106171 1493.171875
354.81958 1716.694458
356.020752 1463.922852
356.853119 1641.644775
356.866547 1780.440063
357.09375 1441.067017
357.537903 1357.915039
357.583801 1369.581543
358.376099 1982.63855
358.47287 1806.964233
360.392242 1597.455811
360.476807 1549.673828
361.923706 1314.564087
362.036926 1601.720337
362.112274 1277.317017
362.188965 1540.715576
362.317596 1599.338989
362.378937 1294.725952
362.826385 1444.838501
362.879181 1850.747681
363.220947 2007.416504
363.636566 1784.475464
364.124817 1217.92041
364.667603 1459.44104
365.917084 1519.439209
366.164948 1530.192627
366.329254 1409.802246
366.561615 1711.188477
367.055237 1439.477783
367.061371 1511.961792
367.235474 1370.583374
368.252014 1497.063354
368.411041 1337.309082
368.685669 1504.219727
369.519043 1574.166626
369.599335 1408.197876
369.707336 1619.008667
373.251129 1336.25293
373.497101 1587.609253
374.082336 1626.825684
374.311707 1425.710327
374.528625 1557.232422
375.643372 1604.293091
376.946991 1412.865234
377.895111 1475.681274
378.795258 1188.562134
379.480347 1279.415039
379.735229 1442.983887
379.924835 1429.361572
380.265411 1622.060303
381.572021 1671.382324
381.709717 1763.520264
381.771393 2015.879272
382.402649 1494.897949
383.867004 1290.063354
383.965485 1377.882935
384.259247 1527.468628
384.810822 1284.816406
385.509247 1505.175659
385.912262 1452.429199
386.063873 1683.730835
386.565247 1690.493042
386.895325 1788.804688
387.242828 1661.577637
388.110107 1455.521606
388.850494 1402.615112
389.707916 1959.958008
390.052155 1389.220459
390.773224 1495.773438
391.053772 1621.888062
392.319397 1471.397705
392.988281 1580.661621
394.262604 1300.189819
394.670258 1603.519531
395.778168 1707.428711
395.84314 1860.11499
396.004303 1320.812866
396.007874 1242.009521
396.12915 1384.203613
396.822662 1514.864136
397.042969 1517.990601
397.640656 1327.132568
398.375732 1432.416748
398.446198 1542.924194
399.147583 1569.290649
401.162048 1840.862427
401.232727 12062.995117
401.239624 79587.226562
401.591064 1470.08667
402.34613 2035.987183
403.758972 1721.620728
403.764587 1642.305054
404.018402 1869.646484
405.425415 1579.640015
406.240326 1572.541138
407.965271 1640.250244
410.526489 1458.983398
410.724365 1581.993286
411.029144 1549.578735
412.453705 1632.577148
413.635956 1192.713379
413.638641 1140.849976
416.172211 1706.285034
417.361969 1283.647095
417.409332 1413.57605
419.190399 1319.373169
419.250519 2209.882324
419.896912 1890.243286
420.638 1476.042236
420.652161 1587.16394
421.104218 1488.485474
421.473419 1551.400513
421.495117 1512.950317
422.000183 1629.708252
424.284119 1509.207397
424.602661 1316.94519
426.096039 1574.845215
426.664215 1406.204224
428.505096 1310.000122
428.920624 1805.593506
429.030426 1433.528564
430.209381 1321.286621
430.73938 1557.944092
430.752777 1163.565308
431.851074 1443.798584
432.589478 1472.792236
434.369965 1486.056641
435.318573 1989.976074
436.204437 1616.691162
436.454071 1469.316772
436.900604 1440.993286
436.910889 1658.732422
437.06311 1529.623779
437.746674 1694.485229
440.108398 1858.713501
440.723236 1400.986084
441.305756 1608.508423
441.454193 1337.630615
442.298737 1385.520142
444.331299 1344.229004
444.678467 1283.972168
444.890228 1292.311401
445.076477 1292.23877
445.444366 1770.671997
445.621399 1481.617798
446.177948 1549.713745
446.479919 1465.833374
446.746429 1765.783447
448.940796 1478.525269
449.379486 1452.709229
449.845093 1617.553467
453.296173 1558.370972
453.684082 2225.27124
454.194 1448.214966
454.570679 1452.756104
454.868408 1841.636841
455.464722 1589.442505
455.733276 1365.25293
457.042755 1442.875732
457.641968 1658.25769
458.574799 2116.934082
458.672913 1319.749146
458.97641 1830.198364
459.110565 1436.171265
459.20105 1347.236694
459.994965 1471.80835
461.179138 1750.046509
