>compound MLS001141072-01!(2S)-1-(4,5-dimethoxy-3-oxo-1H-2-benzofuran-1-yl)-N-(2-ethylphenyl)-5-oxopyrrolidine-2-carboxamide
>formula C23H24N2O6
>ionization [M+H]+
>parentmass 425.171
#inchi InChI=1S/C23H24N2O6/c1-4-13-7-5-6-8-15(13)24-21(27)16-10-12-18(26)25(16)22-14-9-11-17(29-2)20(30-3)19(14)23(28)31-22/h5-9,11,16,22H,4,10,12H2,1-3H3,(H,24,27)/t16-,22?/m0/s1
#inchikey VGHLOPVTFSOVQA
#Ion_Source LC-ESI
#Instrument qTof
#Compound_Source NIH Natural Product Library
#PI Dorrestein
#Data_Collector VVP/LMS
#Scan -1
#Precursor_MZ 425.171
#ExactMass 424.163
#Charge 1
#CAS_Number N/A
#Pubmed_ID N/A
#Smiles CCc1ccccc1NC(=O)[C@@H]2CCC(=O)N2C3OC(=O)c4c3ccc(OC)c4OC
#INCHI_AUX N/A
#Library_Class 1
#SpectrumID CCMSLIB00000079474
#IonMode Positive
#UpdateWorkflowName UPDATE-SINGLE-ANNOTATED-GOLD
#LibraryQualityString Gold
#TaskID b1d8e8f6646f4e71acdff9ca3d919d08
##Scan# 1844
#SpectrumFile p1-H06_GH6_01_17962.mzXML
#LibraryName NIH_Natural_Products_Library.mgf
#MQScore -1
#Organism NIH_Natural_Products_Library
#TIC_Query 0
#RT_Query -1
#MZErrorPPM -1
#SharedPeaks 0
#MassDiff 0
#LibMZ -1
#SpecMZ 425.171
#SpecCharge 0
#internalFilename spec-00000.mgf

>collision 10
95.258575 168.0
95.425713 180.0
96.027672 164.0
98.050789 120.0
98.317024 148.0
99.361801 108.0
99.490799 148.0
99.623856 140.0
100.879326 168.0
101.127365 156.0
101.237473 140.0
102.319756 200.0
102.870117 148.0
103.017532 116.0
104.034134 92.0
104.792732 124.0
105.034294 180.0
105.11898 164.0
105.576576 64.0
106.589256 64.0
106.95533 36.0
107.010918 76.0
107.048347 820.0
107.208664 56.0
107.520073 172.0
107.654259 36.0
108.015953 236.0
108.063538 188.0
108.604225 128.0
108.723381 148.0
108.849113 36.0
109.027344 872.0
109.063103 180.0
109.240929 216.0
109.739677 132.0
109.964973 140.0
112.104156 160.0
112.643959 184.0
112.906372 60.0
113.012146 204.0
113.249245 160.0
114.221397 56.0
114.368217 72.0
115.52906 152.0
115.869461 236.0
117.033569 144.0
117.367546 232.0
118.034775 148.0
118.065048 156.0
118.7798 156.0
119.051102 152.0
119.185776 68.0
119.205338 52.0
119.533691 96.0
119.659935 168.0
119.72744 128.0
119.879936 160.0
120.052155 96.0
121.028053 584.0
121.783333 152.0
121.844841 168.0
122.034416 976.0
122.619408 48.0
123.038521 336.0
123.05397 52.0
123.237289 116.0
124.016266 188.0
125.392059 132.0
125.619492 84.0
125.704277 156.0
126.755272 136.0
127.120789 180.0
128.705505 180.0
130.215988 132.0
130.39093 156.0
130.613754 240.0
130.654709 192.0
131.064529 140.0
131.984406 148.0
132.160538 120.0
132.616257 204.0
132.680435 152.0
133.525452 104.0
133.65889 80.0
134.038666 116.0
134.059555 124.0
134.223236 52.0
134.470078 152.0
134.638611 112.0
135.008301 128.0
135.043259 1188.0
135.87468 180.0
135.911804 172.0
136.018555 60.0
136.373947 196.0
137.023193 348.0
137.060471 172.0
138.120392 196.0
139.456909 104.0
140.148773 176.0
140.462341 172.0
141.585037 152.0
141.964203 156.0
142.381897 116.0
142.507782 128.0
142.954819 48.0
143.662476 152.0
144.505814 140.0
147.260712 156.0
147.681274 172.0
148.01767 136.0
148.72316 68.0
149.021301 1184.0
149.055878 408.0
149.805237 124.0
150.031586 1648.0
150.835022 188.0
151.033844 280.0
151.216583 96.0
151.245956 184.0
151.26799 52.0
152.054794 144.0
153.018723 148.0
153.038086 84.0
153.057785 148.0
153.210495 104.0
153.277008 196.0
153.750488 128.0
153.975159 144.0
154.034332 192.0
154.148087 44.0
155.029053 132.0
155.051361 76.0
156.230804 212.0
156.686401 60.0
157.389984 168.0
158.327499 124.0
158.934143 176.0
159.197723 140.0
159.328339 196.0
160.019958 192.0
160.365082 164.0
161.043793 216.0
161.061478 104.0
161.132217 108.0
161.885986 244.0
162.002487 228.0
162.999603 156.0
163.038208 3752.0
163.197861 68.0
163.548935 52.0
163.635483 136.0
163.90802 88.0
164.039963 372.0
164.382324 192.0
164.716782 144.0
165.015411 852.0
165.041153 276.0
165.057877 164.0
165.233185 92.0
165.274124 160.0
166.063141 156.0
166.509735 84.0
166.851486 140.0
166.96463 208.0
167.381516 120.0
168.020721 136.0
168.847305 148.0
173.233261 64.0
174.2827 152.0
175.033173 264.0
175.06395 224.0
176.351425 152.0
177.018112 112.0
177.341324 112.0
178.024887 816.0
178.211761 176.0
178.549362 160.0
178.690338 56.0
179.025726 140.0
179.070999 128.0
179.23085 36.0
179.860245 176.0
180.562943 200.0
181.004501 212.0
181.83287 176.0
181.916855 220.0
182.351212 228.0
182.41304 120.0
182.805725 272.0
185.42804 148.0
185.897217 200.0
185.989487 200.0
187.193893 236.0
187.624405 260.0
190.662766 196.0
190.802948 212.0
191.036697 92.0
191.29538 196.0
191.680969 160.0
192.469879 232.0
192.541672 72.0
192.668732 312.0
192.82901 164.0
192.853882 184.0
192.889816 128.0
192.932693 312.0
192.969986 160.0
193.049042 24540.0
193.108246 28.0
193.135391 64.0
193.184891 124.0
193.24205 96.0
193.312973 56.0
193.396332 68.0
193.454132 84.0
193.503967 88.0
193.573181 88.0
193.814178 88.0
193.858521 76.0
193.988785 180.0
194.053131 3320.0
194.157913 32.0
194.313248 96.0
194.338226 60.0
194.43132 80.0
194.532501 68.0
194.718536 112.0
194.840759 44.0
194.943558 52.0
195.051331 404.0
195.093658 84.0
195.129791 120.0
195.213211 92.0
195.252151 108.0
195.317825 148.0
195.402359 128.0
195.513657 212.0
195.541489 80.0
195.630569 116.0
195.753067 88.0
195.883972 52.0
196.11525 96.0
196.714966 72.0
197.089218 72.0
197.181427 48.0
198.648651 40.0
199.786377 88.0
199.901749 76.0
201.836838 52.0
202.949631 144.0
202.977982 48.0
206.149155 60.0
207.093277 156.0
208.312347 52.0
209.042648 188.0
210.045273 96.0
213.922546 108.0
224.515808 108.0
235.00795 164.0
244.039078 240.0
252.038345 140.0
256.998077 96.0
263.425598 240.0
274.915894 56.0
278.129608 52.0
281.008209 152.0
283.911713 156.0
291.042145 196.0
292.854736 76.0
296.131256 188.0
304.296265 116.0
304.997986 168.0
307.757141 76.0
307.994629 128.0
311.609924 88.0
312.918274 76.0
313.203522 112.0
320.6763 88.0
329.934113 72.0
332.041534 136.0
339.327362 56.0
395.006531 128.0
399.466492 64.0
422.240631 124.0
446.10553 112.0
481.124725 124.0
484.925964 148.0
502.508911 92.0
835.640564 108.0
915.274414 56.0
942.443054 208.0
1001.95636 196.0
1035.58667 84.0
1036.438721 204.0
1097.703369 144.0
1125.240112 72.0
1133.158936 168.0
1143.904053 116.0
1151.11145 160.0
1167.579224 116.0
1176.648682 180.0
1215.427856 92.0
1218.218872 80.0
1218.635742 176.0
1220.721069 124.0
1235.94165 156.0
1238.651123 172.0
1244.514038 108.0
1246.656494 212.0
1250.728638 120.0
1258.702393 76.0
1259.662842 188.0
1271.920288 260.0
1301.031738 40.0
1313.914062 164.0
1329.76123 116.0
1346.389893 172.0
1348.574463 188.0
1361.593872 116.0
1371.113892 160.0
1376.048828 180.0
1386.308228 188.0
1398.793457 60.0
1404.88916 168.0
1406.657715 148.0
1432.521606 116.0
1436.796021 200.0
1440.24585 56.0
1442.603516 196.0
1450.119873 156.0
1461.374023 260.0
1473.41272 136.0
1480.702515 40.0
1483.031616 68.0
1485.508423 184.0
1486.973999 200.0
1497.70752 124.0
1500.435425 80.0
1500.836304 180.0
