>compound NCGC00160281-01!9,10-Dimethoxy-6aH-benzo[4,5][1,3]oxazino[2,3-a]isoindole-5,11-dione
>formula C17H13NO5
>ionization [M+H]+
>parentmass 312.085938
#inchi InChI=1S/C17H13NO5/c1-21-12-8-7-10-13(14(12)22-2)15(19)18-11-6-4-3-5-9(11)17(20)23-16(10)18/h3-8,16H,1-2H3/t16-/m1/s1
#inchikey RROCIQVJGOEFSU
#Ion_Source LC-ESI
#Instrument qTOF
#Compound_Source Prestwick Phytochem Lib
#PI Dorrestein
#Data_Collector VVP/LMS
#Scan -1
#Precursor_MZ 312.087
#ExactMass 311.079
#Charge 1
#CAS_Number N/A
#Pubmed_ID N/A
#Smiles COC1=CC=C2[C@H]3OC(=O)C4=C(C=CC=C4)[N@@]3C(=O)C2=C1OC
#INCHI_AUX N/A
#Library_Class 1
#SpectrumID CCMSLIB00000078717
#IonMode Positive
#UpdateWorkflowName UPDATE-SINGLE-ANNOTATED-GOLD
#LibraryQualityString Gold
#TaskID 67c915c6594c435cadc1fe2b5358144d
##Scan# 2074
#SpectrumFile p1-G02_GG2_01_17946.mzXML
#LibraryName phytochem_lib.mgf
#MQScore -1
#Organism phytochem_lib
#TIC_Query 0
#RT_Query -1
#MZErrorPPM -1
#SharedPeaks 0
#MassDiff 0
#LibMZ -1
#SpecMZ 312.087
#SpecCharge 0
#internalFilename spec-00000.mgf

>collision 10
95.565704 140.0
97.76712 128.0
97.826172 152.0
98.793137 104.0
99.11808 164.0
101.277428 136.0
102.59362 164.0
104.733505 152.0
105.033142 176.0
106.223648 116.0
107.049866 84.0
108.019913 188.0
109.030579 216.0
110.025307 160.0
110.658585 208.0
110.910172 112.0
111.010803 212.0
114.779137 128.0
114.95192 196.0
115.530937 196.0
118.027992 156.0
120.021606 208.0
120.403191 124.0
121.028175 448.0
121.050499 72.0
121.068024 128.0
121.190689 108.0
122.03846 168.0
123.661522 180.0
132.043533 208.0
134.612717 200.0
135.005569 116.0
135.045242 256.0
135.445312 128.0
136.250275 224.0
137.02092 304.0
137.059952 156.0
137.715485 72.0
139.057068 200.0
140.063416 124.0
145.029648 204.0
146.024017 356.0
146.690613 56.0
147.279388 72.0
149.024551 284.0
149.096512 80.0
149.400452 76.0
150.02919 580.0
150.778107 120.0
151.039886 388.0
151.169388 148.0
153.061981 184.0
153.655991 200.0
154.624634 200.0
156.498825 40.0
156.982239 264.0
157.057053 132.0
157.986298 120.0
158.973495 156.0
159.224548 96.0
160.288651 144.0
162.607666 132.0
163.038376 960.0
163.471725 244.0
165.022583 188.0
165.054749 848.0
165.708496 148.0
165.839188 56.0
166.030228 148.0
166.059067 180.0
167.074707 612.0
168.050766 140.0
168.083847 336.0
168.48967 112.0
169.061111 212.0
170.32634 108.0
171.012772 280.0
171.515472 112.0
172.818634 172.0
173.732986 216.0
176.012253 164.0
176.376831 180.0
176.956177 56.0
177.01973 180.0
177.602783 152.0
178.032547 432.0
178.062927 316.0
178.803696 124.0
179.077927 136.0
179.829803 52.0
180.075439 80.0
180.329254 116.0
181.054291 216.0
181.306107 180.0
182.054581 32.0
183.427505 52.0
184.068863 116.0
188.838348 108.0
189.051743 56.0
189.972366 168.0
190.050385 204.0
193.000534 120.0
193.048309 3000.0
194.055023 272.0
194.24263 40.0
195.052261 408.0
195.07103 208.0
195.389938 68.0
195.428894 44.0
195.529068 72.0
196.080902 220.0
196.811386 60.0
197.434525 76.0
197.84584 176.0
198.056168 144.0
201.078384 168.0
204.932159 104.0
205.048996 180.0
206.059143 188.0
207.071777 136.0
207.24939 144.0
207.62204 148.0
208.066788 140.0
210.054382 136.0
211.06572 192.0
212.067795 180.0
212.575317 96.0
213.080475 152.0
216.786255 100.0
220.06601 112.0
221.55069 32.0
222.050522 212.0
222.517502 68.0
223.060318 260.0
223.385284 252.0
224.065109 292.0
225.077438 192.0
226.052521 160.0
226.10347 140.0
226.666458 140.0
228.037918 212.0
228.067215 760.0
229.071075 180.0
233.054413 136.0
236.062973 36.0
238.0504 312.0
238.094757 220.0
239.056992 116.0
240.067215 1016.0
240.156845 64.0
242.051285 152.0
249.068573 176.0
250.052994 476.0
251.050171 648.0
252.061661 152.0
253.051544 116.0
253.089539 148.0
254.043152 152.0
255.043762 136.0
256.0578 124.0
265.569397 220.0
267.105774 128.0
267.343262 88.0
268.061401 336.0
268.100922 240.0
269.07132 344.0
270.083832 48.0
273.809082 36.0
280.062286 52.0
282.024231 160.0
284.043304 176.0
284.092072 1708.0
284.16745 128.0
284.422485 88.0
285.088531 368.0
285.205109 148.0
285.292511 112.0
285.628784 76.0
285.975342 52.0
286.099884 104.0
286.935394 64.0
289.263 76.0
290.323486 148.0
291.749573 116.0
294.075714 152.0
297.056396 144.0
306.456757 76.0
307.740265 200.0
310.076996 104.0
312.085938 1120.0
312.355743 104.0
312.401459 88.0
313.027954 52.0
313.0802 172.0
314.303986 84.0
383.910461 68.0
386.179535 60.0
402.066711 148.0
502.819733 108.0
520.868713 20.0
564.557983 68.0
587.022522 108.0
698.456482 128.0
864.479736 60.0
908.661926 60.0
1029.68103 176.0
1183.529663 116.0
1209.179565 224.0
1228.635864 144.0
1298.048706 200.0
1368.764893 268.0
1446.870361 200.0
1470.007202 152.0
1491.689819 72.0
1494.104492 140.0
1501.229248 128.0
