>compound Prasugrel
>formula C20H20FNO3S 
>ionization [M+H]+
>parentmass 374.12204
#inchi InChI=1S/C20H20FNO3S/c1-12(23)25-18-10-14-11-22(9-8-17(14)26-18)19(20(24)13-6-7-13)15-4-2-3-5-16(15)21/h2-5,10,13,19H,6-9,11H2,1H3
#inchikey DTGLZDAWLRGWQN
#Ion_Source LC-ESI
#Instrument qTof
#Compound_Source Isolated
#PI Sirenas
#Data_Collector Ed Esquenazi 
#Scan -1
#Precursor_MZ 374.123
#ExactMass 0.0
#Charge 1
#CAS_Number N/A
#Pubmed_ID N/A
#Smiles N/A
#INCHI_AUX N/A
#Library_Class 3
#SpectrumID CCMSLIB00000006114
#IonMode Positive
#UpdateWorkflowName UPDATE-SINGLE-ANNOTATED-BRONZE
#LibraryQualityString Bronze
#TaskID d19310cd93df49b68e9fcbec27720eb5
##Scan# 2
#SpectrumFile Prasugrel.mgf
#LibraryName fda_library.mgf
#MQScore -1
#Organism fda_library
#TIC_Query 0
#RT_Query -1
#MZErrorPPM -1
#SharedPeaks 0
#MassDiff 0
#LibMZ -1
#SpecMZ 374.123
#SpecCharge 0
#internalFilename spec-00000.mgf

>collision 10
109.044601 1456.51001
109.08754 3.66886
109.174797 22.012859
109.511848 15.70588
116.058403 30.16176
120.405792 5.633333
120.485611 15.34843
121.045464 103.680496
122.038857 57.057732
123.024231 130.520798
124.056427 25.71841
124.695549 17.400539
126.012047 27.66716
126.033958 72.640694
126.633736 17.15243
126.896164 14.70707
127.020523 499.480286
127.05249 111.310799
127.064735 4.382936
128.06192 150.906097
129.070221 226.780701
133.045486 112.323303
134.050385 83.198502
134.410767 16.78763
134.439575 13.95323
135.060303 2241.020996
135.10965 16.348431
135.586472 15.57353
135.769577 13.33333
136.159042 13.44444
136.443695 22.635269
139.02037 581.765198
141.038071 54.30946
141.490616 22.213381
146.054337 65.362
147.060043 157.862396
148.190857 14.36333
148.261978 22.667521
148.270081 29.22262
148.351456 32.2687
148.410324 15.00577
148.516327 16.217739
148.677444 18.008329
149.039597 1574.740967
149.075989 7114.727051
149.128174 63.36232
149.140182 7.148809
149.187057 16.99194
149.224228 23.08869
149.277863 51.261101
149.311386 38.294571
149.330994 22.612341
149.382751 14.93827
149.39946 26.336981
149.4263 16.449829
149.546967 9.296569
149.58876 33.513279
149.666428 7.0
149.678986 21.375
149.799423 17.66954
150.110413 2.35
150.28096 19.66667
150.289474 6.341667
150.443375 15.00298
150.588089 25.335939
151.421799 10.05833
151.646103 19.32184
151.665192 6.932018
152.379807 26.42911
152.751602 16.035721
153.203583 4.675926
154.031067 1142.214966
154.171829 26.91667
154.199951 20.672819
154.290802 4.531863
154.488815 11.04167
154.7379 14.52
155.039429 843.987305
155.04895 20.002529
155.290894 4.020833
158.100876 4.6
159.060165 68.552551
161.074051 26.839741
162.04538 36.929008
165.073776 41.693432
169.031219 125.123398
169.350784 13.3344
170.137192 24.39674
170.884445 18.741671
173.065994 71.73777
174.066422 73.334999
175.052536 13.46377
175.38887 17.441441
176.025177 17.705191
176.038879 1.694445
176.072708 26.296881
176.087234 756.133118
176.122009 11.01587
176.154465 72.690117
176.175507 34.201191
176.213364 65.296913
176.223206 16.603331
176.268188 15.33532
176.286804 17.35417
176.335342 13.18561
176.378326 9.291667
176.446121 8.481482
176.459412 13.46897
176.470337 15.95238
176.491226 16.066669
176.676544 18.111771
176.739807 25.50342
176.810349 35.653549
176.849472 6.633772
176.907761 19.335859
177.040802 119.437103
177.071259 39596.269531
177.107086 11.88005
177.128113 47.703701
177.257736 46.915279
177.272781 28.34483
177.299011 18.37681
177.336884 19.163759
177.397156 6.160088
177.445068 7.560484
177.466949 77.622231
177.491364 14.91464
177.51445 13.321
177.523972 2.449074
177.557831 28.27495
177.574753 14.93462
177.60025 49.601631
177.615204 28.94487
177.645233 14.9685
177.658386 27.271231
177.674362 10.58333
177.686966 37.00119
177.744858 38.785019
177.775558 19.85174
177.808685 19.84761
177.825775 19.921379
177.846756 39.761669
177.918106 7.605556
177.936905 13.64628
177.983093 27.623529
178.073669 431.563812
178.10083 462.689392
178.424179 15.62143
178.549545 3.333333
178.744843 24.00629
178.767441 13.93895
178.856491 14.00798
179.126434 13.74107
179.899506 15.07562
180.423172 14.79427
180.604935 6.016666
182.969482 21.03792
186.08757 99.823723
186.258408 10.73611
186.354324 13.8179
188.084335 129.319
189.071365 46.343609
192.07988 117.831596
192.318588 16.111111
194.098801 91.876503
196.041107 137.987396
197.0495 66.025284
197.858902 27.198971
198.969711 53.693329
199.417175 18.347219
200.012894 15.08333
202.100098 91.762451
202.441986 7.382936
203.019882 15.375
204.809647 38.67659
204.829681 5.408333
204.874557 228.819702
204.889633 105.160103
204.903687 20.347219
204.922318 98.128326
204.951752 206.067902
204.973724 126.459198
204.996536 12.35833
205.008316 163.917206
205.021652 6.598684
205.040543 76.525597
205.065277 313.919708
205.096283 151.937607
205.131775 22.59248
205.145416 117.882004
205.169495 81.690193
205.188461 81.580269
205.228409 64.239677
205.25798 11.85688
205.26886 33.085468
205.3004 55.86071
205.325058 36.814919
205.374557 39.268749
205.396301 115.445297
205.507553 24.391199
205.66095 86.485863
205.705902 11.66667
205.736328 36.263889
205.785706 90.086243
205.835541 36.425819
205.849854 5.786765
205.905487 13.85195
205.994522 62.112438
206.098114 154634.796875
206.227219 60.098919
206.335815 42.160709
206.366959 28.245621
206.4048 30.25139
206.448456 22.8958
206.474182 19.354759
206.508865 72.94545
206.526581 104.158401
206.545593 78.293541
206.590408 53.227089
206.603394 100.371002
206.628586 49.247009
206.676147 168.274506
206.691849 126.584503
206.72049 167.207703
206.756882 115.429703
206.812302 166.328506
206.886719 58.7085
206.936188 46.393711
206.954926 13.00397
206.977264 39.73027
207.154572 54.58913
207.241943 23.375
207.276901 44.359749
207.355347 48.545399
207.427826 29.858879
207.478256 41.410519
207.558823 70.115082
207.585678 72.627892
207.628357 95.626007
207.827652 42.440521
207.926193 37.068878
207.949051 25.45833
207.99411 8.25
208.036758 4.054824
208.227402 30.67079
208.251129 24.938271
208.632614 7.816667
208.689545 16.00765
208.845398 13.13286
208.9366 25.52482
209.112015 29.00421
209.161057 16.605619
209.294464 18.04167
209.43927 15.64198
209.478622 37.111111
209.907684 3.125
210.008743 16.975309
210.061737 34.890739
210.654175 11.04598
215.233521 24.95595
218.93631 19.26235
221.271973 15.87272
236.014648 17.73848
245.48111 5.840278
270.133545 21.419331
270.228455 6.006945
271.781372 16.694441
277.941254 16.796881
286.124115 23.19133
291.897736 48.10162
292.255737 22.22283
299.128357 89.256104
303.086151 50.53091
304.117706 77.019173
314.102692 43.860458
330.011627 21.8125
330.233398 34.060181
330.28421 14.0151
330.830811 13.02042
331.118774 22.64912
331.249786 24.26453
331.544678 5.703947
331.707947 11.1875
331.761658 20.57407
331.923767 3.727941
332.111603 7009.897949
332.190002 5.00641
332.259705 70.592697
332.2901 31.16329
332.343567 16.383129
332.382263 24.047621
332.444153 67.547638
332.462708 24.025681
332.506195 32.309429
332.532471 39.005852
332.563141 28.20417
332.646729 29.89538
332.691101 5.0
332.726471 36.826149
332.868805 9.094697
333.02655 34.11544
333.891479 13.12354
334.083435 14.59269
334.164948 5.679598
334.922821 9.1875
334.979401 17.93223
336.719849 3.413462
368.377838 14.93889
371.756989 13.93939
371.808411 20.226851
371.832794 25.644211
371.954041 16.979799
372.111847 30.46944
374.044617 6.818182
374.12204 4476.78418
374.204895 30.69565
374.326294 33.456329
374.349365 18.436489
374.541168 25.00366
374.638367 20.11594
374.978912 14.01965
375.376495 3.691667
375.558105 18.016529
545.782959 17.777781
1515.022827 15.00238
1541.269897 13.00167
