>compound CefditorenPivoxil
>formula C25H28N6O7S3 
>ionization [M+H]+
>parentmass 621.126587
#inchi InChI=1S/C25H28N6O7S3/c1-12-15(41-10-27-12)7-6-13-8-39-21-17(29-19(32)16(30-36-5)14-9-40-24(26)28-14)20(33)31(21)18(13)22(34)37-11-38-23(35)25(2,3)4/h6-7,9-10,17,21H,8,11H2,1-5H3,(H2,26,28)(H,29,32)/b7-6-,30-16-/t17-,21-/m1/s1
#inchikey AFZFFLVORLEPPO
#Ion_Source LC-ESI
#Instrument qTof
#Compound_Source Isolated
#PI Sirenas
#Data_Collector Ed Esquenazi 
#Scan -1
#Precursor_MZ 621.125
#ExactMass 0.0
#Charge 1
#CAS_Number N/A
#Pubmed_ID N/A
#Smiles N/A
#INCHI_AUX N/A
#Library_Class 3
#SpectrumID CCMSLIB00000004857
#IonMode Positive
#UpdateWorkflowName UPDATE-SINGLE-ANNOTATED-BRONZE
#LibraryQualityString Bronze
#TaskID d19310cd93df49b68e9fcbec27720eb5
##Scan# 2
#SpectrumFile CefditorenPivoxil.mgf
#LibraryName fda_library.mgf
#MQScore -1
#Organism fda_library
#TIC_Query 0
#RT_Query -1
#MZErrorPPM -1
#SharedPeaks 0
#MassDiff 0
#LibMZ -1
#SpecMZ 621.125
#SpecCharge 0
#internalFilename spec-00000.mgf

>collision 10
100.010078 99.885612
100.022247 9.691667
101.041321 24.22917
102.002045 32.442181
102.039726 43.708328
102.610481 26.18535
106.526947 16.34409
107.046562 66.023262
110.00631 70.146667
111.052635 70.578789
114.529175 12.32018
116.050026 47.536861
118.065552 78.368507
122.015182 33.395199
122.035149 66.062737
123.023193 27.67857
124.005127 14.01042
124.048119 18.019779
125.003197 448.772614
125.225853 15.78513
125.310493 6.011364
125.360504 40.08535
125.397911 34.927502
125.606636 16.15243
126.011665 4294.941895
126.059479 12.00278
126.074944 8.724999
126.082581 16.369049
126.112854 9.523809
126.169357 29.75
126.235153 8.015873
126.27034 8.386905
126.325333 10.81071
126.371994 15.03347
126.411102 11.75
126.516792 16.414221
126.567612 7.334877
126.587891 18.64646
126.613342 14.89851
126.991577 66.187149
127.000862 72.67276
127.218079 17.34099
127.980324 33.017078
131.032288 17.06127
133.07663 64.065262
135.063263 14.76587
136.019699 104.037102
138.009537 135.187607
138.038986 50.901939
138.067886 77.571228
138.633484 16.122471
138.997986 12.48485
139.01767 145.369705
140.007416 25.676769
140.027344 145.396606
141.000214 33.100632
142.048157 51.656818
142.068863 423.356201
142.630112 9.631173
142.973892 44.838379
143.060822 24.125
145.077103 79.740494
145.4767 9.711021
145.915833 12.59414
145.984955 16.52273
146.059845 9.122475
148.017838 42.272388
150.031738 96.828011
150.372482 8.775641
152.024918 17.852011
152.054565 99.533333
153.01683 77.185211
153.979752 17.39683
154.031891 52.336899
155.013199 87.912132
155.02919 38.632721
155.483124 3.640152
155.996048 46.33778
156.022568 1144.328003
156.343292 8.027778
156.415771 7.694445
156.437531 13.61111
156.785828 6.422222
157.983658 39.696011
158.390762 8.541667
158.524323 9.88469
160.018509 52.175621
161.066162 11.66774
161.375366 7.698232
161.755661 9.340986
162.036819 1275.358032
162.092102 11.00068
162.114243 3.013889
162.225006 11.41049
162.287048 8.776316
162.333984 13.06833
162.433334 10.3787
162.532684 13.64209
162.712463 13.73253
163.020142 30.84009
163.377884 23.002979
164.064621 14.11667
164.999146 29.48324
165.022156 125.180901
165.049973 36.04007
165.061005 32.232021
166.005524 45.932049
166.030334 2138.495117
166.08493 8.765873
166.108185 7.740942
166.149536 12.53333
166.215271 6.04529
166.300339 13.66886
166.380966 6.673611
166.561295 19.789221
166.690735 8.001068
167.320496 15.43219
167.460388 10.66667
167.52269 9.108871
168.053925 77.782318
169.054214 34.51062
169.634949 50.240082
169.968582 58.566101
170.035782 34.385971
172.005371 42.694439
172.084457 36.163841
172.984894 39.864128
174.041443 13.35417
175.02626 25.53191
176.011734 14.32527
176.043045 79.47094
176.760406 15.37957
177.044357 218.116806
178.060669 18.55682
178.280548 5.671875
178.997284 35.06918
179.015259 19.01042
179.061844 275.335205
179.308746 10.7815
179.630264 21.91433
179.807419 10.32143
180.008896 82.092796
180.957993 13.85417
180.972168 11.94707
181.015518 585.823181
181.062637 43.296509
181.092545 7.058333
181.228394 13.12821
181.453201 7.350877
181.633057 4.387821
181.976044 64.335716
182.024643 1923.380981
182.080994 30.69459
182.161514 8.108871
182.307098 8.010715
182.492767 46.674568
182.828857 7.782407
182.84549 27.639179
182.964615 22.747549
183.18129 8.583333
184.017609 353.032196
185.048553 379.936493
185.071335 14.75266
185.25943 11.66975
185.690781 15.57445
186.029495 52.563389
188.011307 18.841181
188.022629 79.996536
189.023209 34.26844
189.046158 111.427101
190.032516 52.674999
190.346741 7.666667
190.913025 7.675388
191.063354 16.63575
192.038956 10.02222
193.017746 39.161362
193.138474 8.630952
193.976562 14.49359
194.01297 88.689636
194.992981 26.88937
195.05957 11.33333
195.93869 14.29643
196.008179 11.9616
196.02356 39.723808
196.040344 87.134377
196.802872 15.0
196.998795 101.5
197.048889 6597.655762
197.109299 24.44138
197.134476 9.397059
197.161377 7.84375
197.198395 13.03125
197.243042 17.6987
197.266357 57.33149
197.27652 19.35606
197.3069 15.92628
197.349899 25.00709
197.36113 41.899368
197.418091 37.70903
197.433502 31.17786
197.550354 7.605556
197.580307 19.225941
197.623642 8.755208
197.682785 25.128429
197.804626 18.44681
197.818176 27.120371
197.976807 30.58696
198.018158 13.40833
198.735474 10.36687
198.907547 11.0
198.982422 37.935478
199.008072 55.748718
199.024979 12.8648
199.227203 13.42188
199.993912 118.198997
201.014404 28.120991
201.043259 816.457703
201.117798 11.72024
201.146744 5.891666
201.476456 13.36905
202.112518 21.755501
203.023926 17.85507
203.450592 9.736112
204.009674 35.236931
204.0578 11.64706
205.005829 67.5718
205.043015 213.781097
205.094025 12.23184
205.128098 45.52121
206.027969 172.926102
206.679794 18.667629
206.719269 7.774123
206.770935 29.887899
206.805725 18.285549
206.840744 20.933331
206.881256 17.197371
206.899841 10.77632
206.94989 11.54667
206.972122 10.75556
207.053925 79.137779
207.085068 25.69978
207.136948 13.19022
207.205215 8.920045
207.2603 34.257332
207.340103 17.5625
207.646133 8.009616
207.950912 52.34235
207.988373 14185.269531
208.049194 253.457596
208.067657 47.399731
208.088608 53.417061
208.112305 146.750107
208.12265 20.237009
208.138214 33.698101
208.156723 9.972826
208.197159 147.617706
208.221039 32.353119
208.278809 17.741671
208.307541 70.186531
208.354126 34.2192
208.379852 17.200001
208.404022 47.795101
208.456406 22.699739
208.484909 34.5
208.505829 23.241671
208.634872 20.47937
208.648804 28.361111
208.661545 10.40761
208.675888 13.85195
208.695175 20.0
208.71933 30.44792
208.740417 10.73684
208.7854 22.6768
208.83165 19.902781
208.882156 10.89815
208.935593 46.94133
208.98877 47.929489
209.012329 3786.862061
209.095154 10.37769
209.160553 28.942579
209.187256 16.783159
209.233749 68.048302
209.248947 7.240079
209.2836 18.18939
209.359634 19.571131
209.379242 13.00076
209.390244 12.92747
209.434692 33.012501
209.465988 18.37361
209.560562 8.2
209.590851 17.80278
209.620926 6.732527
209.701752 11.86786
209.770645 7.857143
209.820068 21.008329
209.89949 10.68873
209.927689 30.46944
210.02034 14141.450195
210.073288 361.901215
210.125305 16.066669
210.152725 10.63095
210.165604 16.34524
210.261093 7.348333
210.283264 107.1325
210.302032 47.900681
210.317963 53.868011
210.355499 36.868568
210.368042 12.75
210.401184 49.570412
210.465164 38.345169
210.497345 8.708333
210.575043 21.39646
210.601074 19.48333
210.640167 11.42857
210.702484 32.924358
210.720688 7.35307
210.755753 11.73848
210.947708 28.66494
211.129776 36.093521
211.367828 18.760099
211.382477 10.6681
211.448227 16.33333
211.494659 12.34167
211.508911 13.03947
211.559967 6.606061
211.676086 12.68889
211.716385 13.20833
211.772125 14.00076
211.848297 29.80724
211.898849 19.013889
211.92691 37.845211
211.993958 95.874268
212.258575 8.111112
212.329376 7.371913
212.367508 22.216909
212.515396 17.912371
212.564194 25.55604
212.628479 9.057693
212.655685 9.259408
212.680313 13.59572
212.795975 8.057693
212.826797 9.605556
212.958435 13.41667
212.986298 154.317902
213.043915 4136.358887
213.099731 61.452702
213.131073 5.673611
213.146332 6.853395
213.177246 14.19928
213.245041 33.841511
213.2733 7.347222
213.302505 9.231482
213.369843 8.386905
213.457413 19.655729
213.529373 105.9086
213.577072 16.637119
213.672318 8.583333
214.321167 20.00066
215.023514 112.195297
215.988052 125.694504
216.034805 89.000267
216.055374 77.440613
216.117294 34.736431
216.312927 7.481667
217.016525 11.13038
217.041931 135.950806
217.060394 131.6436
217.269913 8.053572
217.490646 8.698232
217.512527 21.002529
218.02977 28.680559
218.648148 24.177629
219.989197 88.047813
219.999847 24.73563
220.024872 85.29467
220.994736 105.648201
221.023666 39.112949
221.038025 47.595749
221.085953 52.208328
222.002808 99.912598
222.022934 83.898483
223.03006 362.730286
223.051132 423.343201
224.988602 35.002449
225.057312 20.592859
225.17601 14.66945
225.609512 7.102273
225.995773 967.179504
226.04866 13.01828
226.703323 30.5243
227.098358 13.0496
227.268997 19.346861
227.730759 10.96014
228.005493 10.54688
228.06041 8.564815
228.59256 7.407407
228.676727 16.796749
230.03595 103.223801
230.226013 8.001344
231.002945 96.470192
231.023758 56.336109
232.009552 92.631622
232.057144 32.531052
233.017456 287.834991
233.337357 13.02671
233.792084 8.675
233.867218 8.314103
234.303619 15.08681
234.998703 135.537598
235.037125 153.876099
235.124908 9.041667
235.233307 11.41667
235.353561 13.9867
235.625015 9.813406
236.02211 64.139923
236.807281 7.001437
237.021957 36.775108
237.697144 12.11484
237.746765 9.296569
238.481812 12.65661
239.004578 30.835421
239.022415 11.48522
239.055496 18.363331
239.078568 19.06349
239.453323 7.028846
239.473572 28.561689
239.520859 46.155701
239.544724 34.015541
239.562012 70.860497
239.585953 236.6492
239.632767 78.01709
239.652069 212.633102
239.679779 101.915398
239.70668 241.340805
239.732468 151.056107
239.754913 82.665527
239.784943 229.618195
239.824158 218.140701
239.841766 14.79167
239.880981 150.075104
239.914444 59.991421
239.945923 98.41478
239.96138 16.721849
239.981964 82.473534
240.025085 431.722198
240.082291 75.388634
240.102173 114.613098
240.114502 17.926279
240.146957 28.92063
240.18634 24.8293
240.34494 32.68557
240.370255 46.370949
240.393387 11.78914
240.470612 33.966
240.663452 88.333946
240.932861 92.475082
241.039368 132303.203125
241.125702 16.336809
241.147339 12.61337
241.217087 21.8109
241.304016 72.943619
241.340958 17.057619
241.45282 36.083328
241.487885 16.71011
241.509476 80.502197
241.530975 120.1632
241.620514 111.816902
241.679306 96.239182
241.744659 73.292084
241.760651 65.463867
241.780273 205.518204
241.862976 46.35083
241.902954 44.599098
241.978165 53.168369
242.154999 75.136688
242.204254 22.97608
242.217239 59.2299
242.3367 102.329803
242.364624 39.064991
242.380859 65.664612
242.420502 32.60849
242.480759 35.171799
242.513657 42.148819
242.553726 62.068489
242.592102 18.080879
242.625763 37.639389
242.91925 69.224571
242.972046 30.297421
243.012909 111.805901
243.170929 19.5375
243.264328 24.36566
243.281143 13.43219
243.348999 15.74167
243.595322 23.856991
243.846252 18.74423
244.054749 190.639297
244.228546 24.48274
244.415894 9.355496
244.448975 9.490196
244.508362 9.078431
244.530121 13.89943
244.622849 8.022223
244.753189 15.01449
244.805328 8.424243
244.977982 38.244049
245.014572 96.625549
245.032898 82.103363
245.11937 13.90645
245.422394 19.14982
245.957565 11.36694
246.069656 81.785011
247.001236 23.69643
247.018356 11.3344
247.060104 17.065861
247.389038 9.104167
247.449005 7.336538
247.468811 29.090389
247.497574 16.83333
247.51442 19.357571
247.562515 33.454639
247.575012 13.17175
247.612793 10.69167
247.627579 31.141541
247.670074 14.74833
247.69754 45.94635
247.726654 10.30769
247.744141 40.010799
247.788498 27.046921
247.837494 33.761971
247.865509 10.01136
248.029648 39.868328
248.128525 30.8001
248.205017 8.333333
248.232422 8.920045
248.716873 40.427929
248.73381 24.899561
248.941467 7.458333
248.97374 80.100754
249.015396 21283.119141
249.104675 5.020833
249.170059 75.748177
249.208008 52.593491
249.221848 87.32534
249.247696 14.70816
249.26236 91.738937
249.293594 39.830078
249.334351 97.702477
249.372604 95.087517
249.429962 26.92803
249.4552 67.201073
249.489899 22.669121
249.532166 49.168411
249.581345 14.11111
249.617249 38.03685
249.642288 32.606331
249.700043 92.946136
249.818985 13.44872
249.852554 21.561399
249.889496 15.81548
249.931885 48.04055
250.081116 17.408331
250.286575 17.89926
250.589371 22.33602
250.672073 9.2
250.774948 9.408334
251.030182 698.61853
251.118088 4.440476
251.354706 6.166667
251.471313 9.369253
251.554047 16.1276
251.824646 22.398939
252.013351 22.52113
252.0681 21.164471
252.35347 19.25338
252.983139 208.820404
253.079086 16.36594
253.156555 9.148809
253.247772 11.88005
253.367111 13.68939
253.993515 129.844604
254.044479 49.480469
254.05864 29.83333
255.664886 13.44444
256.049255 45.735729
257.017761 290.760315
257.392151 11.65337
257.993469 38.000729
258.025482 929.17572
258.241455 8.022223
258.766968 7.686274
258.788971 11.47115
258.998291 26.04167
259.338501 20.976191
259.517426 14.03
259.696777 12.52466
259.989838 48.38044
261.015259 341.09549
261.392639 8.698232
261.601013 14.89655
261.685516 4.531863
261.701843 10.40895
261.715363 41.057549
262.060699 30.546881
262.174713 10.17385
262.744568 7.840278
262.993591 1249.214966
263.026093 129.508301
263.088593 8.49359
263.123688 98.742317
263.144806 11.66987
263.257568 15.125
263.324799 20.408331
263.460938 19.06382
263.711334 10.89583
264.359528 11.71605
265.07373 75.368446
265.253082 9.948333
265.443848 13.25
265.458008 7.334596
265.725189 19.68103
266.059875 39.474998
266.077515 48.214741
266.424805 26.975821
266.466949 9.047619
266.610535 35.43935
266.945404 12.76552
266.999237 45.179489
267.026001 1013.13501
267.218018 8.004386
267.803925 25.34314
267.993073 31.59457
268.044159 29.296881
268.073334 70.637901
268.447876 15.83333
269.029785 73.68148
269.914703 9.400001
270.027313 75.988937
270.09198 12.37745
270.91452 24.373461
271.053314 7.341667
271.456482 9.041667
272.046783 113.653198
272.406647 14.34667
273.011139 40.707211
274.036591 51.38736
276.029114 403.69101
276.244141 8.029761
276.985413 21.84387
277.010773 74.100166
277.436798 16.56818
278.041229 249.989304
278.61853 8.531863
279.025818 457.815002
279.153442 10.52083
280.092499 49.247639
280.370514 9.003205
280.528229 7.714285
281.104584 95.358566
282.255707 8.013888
282.370911 37.041962
282.991974 37.370419
283.177216 14.08221
283.693756 12.23077
283.730774 16.066669
283.830994 14.8
284.023438 54.360741
284.404938 6.001984
285.011078 3909.735107
285.096039 160.484894
285.138733 8.076923
285.192657 22.2192
285.20874 24.960831
285.261353 33.47551
285.320251 9.346265
285.34375 10.11204
285.372986 13.35417
285.401093 30.25494
285.478088 36.419922
285.511322 36.272781
285.569244 19.575979
285.649506 15.94444
285.796417 10.00397
285.94693 27.97019
286.029633 34.317719
286.378998 10.64015
286.809387 9.490196
287.044495 22.360559
287.383545 17.085939
287.492737 6.728535
287.870392 7.407407
288.030273 26.09646
288.048157 15.32783
288.585052 7.668651
289.013519 78.861954
289.431152 7.337963
289.774658 15.36915
290.58609 9.32545
290.988464 370.674103
291.363525 12.04688
292.005096 7.354167
292.026245 56.693371
292.052338 64.644943
292.085022 54.726631
292.250183 16.601191
293.063477 69.913979
293.14444 49.258072
293.160095 38.3722
293.357361 6.446428
294.07785 907.452393
294.251129 24.806669
294.3237 7.094697
294.496857 16.818939
295.017914 14.29167
295.410126 38.442402
296.045685 33.558929
296.211761 17.39646
297.0289 24.303789
297.100342 332.647797
297.427917 7.388514
297.866211 13.85494
298.028168 22.333771
298.058533 28.945339
298.929718 11.07849
299.045471 27.9184
300.113464 11.56466
302.058136 22.4741
302.139435 8.037879
302.99176 10.8375
303.039673 21.024191
304.020966 3077.115967
304.155945 10.5307
304.19162 10.6768
304.265442 6.932018
304.301758 21.670231
304.367554 8.761905
304.398285 11.1875
304.50351 22.3902
304.531494 13.54459
304.554504 19.214911
304.598297 12.69338
304.666168 40.370731
304.783508 15.42589
305.132843 10.32143
306.03891 160.286606
306.063904 30.372549
307.021057 41.870541
307.085419 31.457319
307.110321 209.623596
307.273834 9.151515
307.355591 29.560329
308.307129 10.00915
309.645599 35.46944
311.061768 200.752808
311.117279 10.92287
311.320862 26.4506
312.033691 20.75676
314.075836 15.69345
314.273132 8.375
316.04129 28.804529
316.926758 13.91159
317.837311 20.002529
320.047729 25.03347
320.069183 39.006409
320.095978 85.88485
321.61673 14.0496
322.029327 101.877403
322.066437 24.1875
322.404205 9.676282
323.086365 57.745319
323.217834 8.198529
323.541901 4.055556
323.87384 16.362089
323.930176 15.82305
324.450073 6.04529
324.876343 10.44298
325.02594 53.30827
325.097107 1978.647949
325.249359 18.545071
325.284271 13.23
325.321686 14.33948
325.459747 9.395202
325.654968 30.757401
325.874237 17.774771
325.943176 10.38889
326.063049 17.64646
326.175659 8.601191
326.194458 9.674319
326.896576 12.37121
326.911896 8.016666
326.93631 7.761905
327.058289 34.59631
327.52829 17.65761
328.043121 21.493589
328.062744 32.412449
329.0354 14.78125
329.866333 17.510969
330.044525 59.820351
332.014679 189.495499
332.577698 7.2
333.013763 92.062866
334.112762 19.671
335.070099 56.560429
335.097626 104.935997
335.38266 8.223765
336.032104 72.836143
336.2612 11.4563
337.043488 81.908798
337.12088 1198.697998
337.407745 37.45776
337.605682 25.989031
337.723328 18.21814
338.177826 7.335784
339.920105 9.696428
339.949524 10.56466
340.080536 13.73409
340.619598 10.78667
340.985565 10.70259
341.034912 60.44482
341.072418 52.928268
341.719177 18.040119
342.002228 103.0084
342.047211 37.38377
342.078369 166.5401
342.214172 15.99145
342.668457 19.189421
343.083008 159.274399
345.994995 55.24366
348.380005 11.85339
349.11676 85.419411
349.492279 15.76956
349.960907 12.81333
350.026245 968.247375
350.202301 6.740942
350.245667 17.896669
350.513855 15.40221
350.813599 8.671875
350.83316 5.66821
351.051483 90.633423
351.08316 1535.314941
351.211975 8.557099
351.263367 14.77381
351.341614 14.69626
351.369843 22.226191
351.422302 28.681339
351.484314 17.394699
351.510986 11.85698
351.583099 23.570339
351.621979 8.694445
351.64801 22.79722
351.700348 9.142858
351.804749 8.745155
352.118958 11.525
352.176147 16.668859
353.123901 11.34722
353.428528 27.09609
353.902985 20.843161
353.982697 33.564461
354.047607 80.628349
354.079956 52.348381
355.051453 151.290497
355.408386 23.111259
356.014648 25.36474
357.065033 14.96296
357.991455 15.69253
358.022827 62.763111
358.230682 13.53452
358.351562 14.11265
358.404297 8.629902
359.017059 44.73962
359.19043 11.74383
361.035736 41.177292
362.036255 85.693001
363.081238 21.396151
364.069733 20.18182
364.104858 299.919312
365.035919 10.73555
365.083862 44.34761
365.901459 8.518678
367.042633 113.809502
367.312927 10.85417
368.026611 33.266991
368.07312 23.33518
368.991638 57.04274
369.063324 558.882812
369.077423 34.963089
369.257294 36.616661
370.038635 93.301323
370.694092 11.6674
371.002258 7.335145
371.190033 17.028851
371.384308 16.686939
371.76004 7.260803
371.924622 9.967105
372.005219 31.98114
372.053955 47.794449
372.095306 13.73611
372.991333 91.880943
373.03772 18.95833
373.089569 26.360729
373.842133 8.005208
374.03595 218.223602
374.642334 6.695513
375.000397 21.872721
375.309937 14.0
376.10141 50.010479
376.363037 17.06897
378.776093 19.479731
378.894012 53.370121
378.943329 7.704545
379.04129 53.451141
379.256226 8.920045
379.595032 9.044118
379.716431 10.08877
379.817902 11.40152
380.042145 37.744598
380.80246 10.00144
380.972717 8.688725
381.027679 20.1523
381.051086 120.118797
381.093262 5752.936035
381.177368 50.186859
381.258026 70.749283
381.296265 12.02778
381.340088 16.810711
381.369629 53.195572
381.454529 15.7947
381.475739 27.735001
381.517334 39.747379
381.624084 27.128969
381.699097 10.11574
381.909882 6.880952
381.961853 29.033569
382.148041 12.16667
