>compound Prednisolone
>formula C21H28O5 
>ionization [M+H]+
>parentmass 361.202
#inchi InChI=1S/C21H28O5/c1-19-7-5-13(23)9-12(19)3-4-14-15-6-8-21(26,17(25)11-22)20(15,2)10-16(24)18(14)19/h5,7,9,14-16,18,22,24,26H,3-4,6,8,10-11H2,1-2H3/t14-,15-,16-,18+,19-,20-,21-/m0/s1
#inchikey OIGNJSKKLXVSLS
#Ion_Source LC-ESI
#Instrument qTof
#Compound_Source Isolated
#PI Sirenas
#Data_Collector Ed Esquenazi 
#Scan -1
#Precursor_MZ 361.202
#ExactMass 0.0
#Charge 1
#CAS_Number N/A
#Pubmed_ID N/A
#Smiles N/A
#INCHI_AUX N/A
#Library_Class 3
#SpectrumID CCMSLIB00000004491
#IonMode Positive
#UpdateWorkflowName UPDATE-SINGLE-ANNOTATED-BRONZE
#LibraryQualityString Bronze
#TaskID d19310cd93df49b68e9fcbec27720eb5
##Scan# 2
#SpectrumFile Prednisolone.mgf
#LibraryName fda_library.mgf
#MQScore -1
#Organism fda_library
#TIC_Query 0
#RT_Query -1
#MZErrorPPM -1
#SharedPeaks 0
#MassDiff 0
#LibMZ -1
#SpecMZ 361.202
#SpecCharge 0
#internalFilename spec-00000.mgf

>collision 10
101.059692 613.361023
101.191071 7.741071
103.037476 163.898193
103.234505 8.586538
103.482117 12.38281
104.112991 10.32143
104.630966 7.333333
104.984467 18.5
105.069649 841.460083
105.112823 14.07122
105.409409 10.5625
106.551537 26.086809
106.562943 29.728451
107.048508 116.691498
107.08503 1271.72998
107.125656 14.48098
107.140236 3.520833
107.166489 21.679029
107.264458 12.33565
109.065544 378.925415
109.101067 446.553192
109.1455 7.6125
109.163673 3.0
109.506035 6.890625
111.079239 471.112488
111.144455 9.0
111.19265 2.5625
111.296715 11.14464
112.113113 8.360119
113.022133 43.405491
113.059486 167.4189
114.501472 9.513889
115.038315 73.012192
115.073814 245.134094
115.094223 9.504807
116.058739 16.76078
117.067604 76.189987
117.193604 13.14286
117.543785 6.142045
118.814873 27.50771
119.019562 8.140625
119.045425 57.893379
119.084869 866.156677
119.136879 4.580357
119.844833 18.15761
120.466209 4.0
120.513214 8.680555
120.577087 6.524457
120.609421 17.071119
121.06443 4003.573975
121.100792 412.986603
121.129265 38.796879
121.172241 18.846979
121.197479 24.24395
121.261108 5.725
121.29071 23.071119
121.334648 17.004629
121.418358 10.61141
121.445808 16.59091
121.514824 7.020833
121.591263 10.5625
121.622589 19.012501
121.728462 25.52083
123.043953 43.012798
123.080345 505.303802
123.311707 5.278409
123.323067 16.445311
124.409103 13.02083
124.850777 12.50833
125.055023 154.450607
125.096039 32.028412
127.068718 41.537498
128.05957 90.400337
130.07283 69.166656
131.045593 12.22321
131.085358 437.583313
131.201538 10.625
131.324677 8.520833
131.458664 8.681818
132.380646 26.0625
133.063904 422.550995
133.101547 817.500305
134.124573 15.0504
134.217117 13.65385
134.396011 24.5
134.551987 4.620193
134.588257 13.86029
135.07991 2536.818115
135.114761 102.670097
135.128525 4.9
135.145844 6.013889
135.166092 23.10096
135.22287 23.55625
135.388565 9.004167
135.441238 20.18
135.477676 15.01197
135.530884 22.23077
135.587021 6.5025
135.672165 36.012821
135.684265 34.139229
135.80864 9.225
135.984543 24.255211
136.575211 6.5625
137.058929 323.388214
137.091522 78.450081
137.100479 56.666672
137.138885 10.08654
137.338577 17.460461
137.45285 13.47059
137.652863 11.14583
138.688675 18.62331
139.074707 399.890106
139.232712 13.19531
139.261932 5.051136
139.288864 10.0625
139.438019 8.508333
139.652557 27.40266
140.249649 13.58036
141.090271 41.050129
142.08287 75.847458
142.142349 12.77802
143.087921 101.939697
143.401337 22.120689
143.418396 29.898029
144.051407 52.724739
144.657959 8.508928
144.854691 7.567935
145.063354 182.691101
145.101028 351.888214
145.337677 30.33333
145.395432 4.043269
145.407349 4.673611
145.69342 27.20083
146.231293 19.01786
146.261917 21.059589
146.28746 7.766448
146.328094 12.90179
146.387863 31.25992
146.429092 3.025
146.458588 48.502399
146.539734 33.40266
146.566299 10.95066
146.633865 36.778412
146.669144 9.780092
146.704025 15.17361
146.774231 7.297794
146.818741 13.1875
147.010162 6.03125
147.080292 13151.410156
147.131332 158.795303
147.174164 73.987297
147.188431 34.847111
147.20166 28.422501
147.224182 16.112499
147.248596 32.289471
147.271957 15.03571
147.298508 41.296108
147.345215 48.875
147.367508 22.530451
147.423111 70.7901
147.448151 41.908329
147.482376 36.58173
147.500305 15.50189
147.517578 11.02083
147.546783 25.023319
147.567917 12.50694
147.590881 41.540539
147.698608 58.870029
147.727173 45.846981
147.754105 56.006699
147.771545 23.1777
147.888535 29.04044
148.036621 15.78409
148.084488 96.120987
148.460968 14.77841
148.617615 5.1
148.693863 42.439819
148.944519 5.704167
149.09642 626.258118
149.128418 78.347221
149.150894 17.60268
149.241943 10.67457
149.497055 7.2
150.37883 3.504808
150.583679 8.580358
150.869843 6.026786
151.07222 241.897003
151.108383 241.636703
151.362869 4.340278
151.391617 16.245001
151.948624 30.140829
153.048599 35.752609
153.634262 6.510417
155.085205 313.293701
155.138519 4.504807
156.262161 6.5625
157.063858 70.056023
157.100861 361.247894
157.199982 13.5625
157.543991 9.0125
157.631332 11.50202
157.64415 3.580357
157.886948 6.0625
158.058197 31.005951
158.071701 82.565163
158.230515 21.086439
158.403198 8.4375
159.080994 1218.729004
159.116943 207.962708
159.154251 5.041667
159.242798 18.54044
159.326202 9.5625
159.383286 6.0625
159.536789 23.012501
159.559021 20.50091
159.646927 9.008333
160.218979 6.25
160.307022 5.620193
161.0578 25.671301
161.094772 983.236511
161.162231 6.008929
161.215836 10.2
161.264191 10.5
161.335587 5.333333
161.439972 19.33523
161.463058 7.633152
161.489578 22.004311
161.516113 4.525
161.573502 11.05
161.648712 16.098789
162.331879 9.240385
163.073532 517.853516
163.112274 281.371185
165.089294 526.464417
165.14267 4.9
165.184814 8.551136
165.255814 4.0
165.372131 5.160714
165.515701 30.00865
165.618256 30.012501
165.680939 16.17308
166.770889 16.02471
167.072021 23.031891
167.100067 31.547119
167.157501 34.491241
167.184433 6.082237
168.08078 14.61765
168.450821 10.03571
169.096359 94.82653
170.100906 60.808819
170.113068 13.50298
170.140015 11.00298
170.180649 17.0016
170.198196 16.675871
170.288834 9.161184
170.334183 9.625
170.366165 9.502315
170.40242 2.5
170.43428 8.7025
170.947983 10.3912
171.038818 9.055555
171.079849 5785.662109
171.11557 163.975098
171.162979 36.433331
171.229996 12.17457
171.267685 15.55682
171.327103 16.5625
171.354156 17.90139
171.405273 35.846981
171.434921 7.5625
171.471466 14.14286
171.487778 31.789471
171.507278 18.574409
171.529953 5.080357
171.544403 6.204167
171.576324 50.097221
171.722839 48.763329
171.749374 12.5194
171.854355 16.550301
171.881546 8.125
171.936386 43.426472
172.043564 6.5
172.060074 31.79707
172.100479 9.375
172.150497 14.16667
172.18277 7.5625
172.517593 10.36012
172.539536 8.898026
172.750565 4.28125
172.92308 10.0152
173.023743 7.2
173.095764 5917.133789
173.142761 14.09091
173.15239 42.61161
173.166702 32.605
173.189743 21.174999
173.206833 18.16806
173.284668 4.504807
173.303787 37.056332
173.328186 12.125
173.353378 9.0
173.371964 17.59524
173.408096 58.278061
173.454559 12.0125
173.490845 24.578131
173.532059 13.00231
173.555267 3.0625
173.628342 19.24564
173.704865 49.302231
173.732056 14.66346
173.767563 23.92061
173.803314 25.85
173.848419 19.50625
173.888336 27.0
174.224686 10.5744
174.94455 5.517857
175.070297 33.07692
175.109741 188.686401
175.165451 20.54167
175.282501 6.661184
175.507904 11.4225
176.078262 26.820311
176.126373 2.5
177.088776 166.203293
177.125748 226.141098
177.180618 2.5
177.806305 13.27083
178.07547 10.0928
179.09993 103.266899
179.144821 9.009615
179.797302 12.05921
181.059341 22.34483
181.09761 198.783096
183.079956 123.670197
183.115799 26.8125
183.558838 5.725
184.1073 26.255211
184.309937 51.10059
184.695358 6.660714
184.927139 9.828804
185.0952 811.915405
185.147186 4.25
185.362427 5.53125
185.414932 7.074405
185.581024 17.72024
186.867325 7.125
187.11084 986.510376
187.324142 16.574699
187.479462 15.44643
187.52417 18.06897
189.090164 318.108307
189.396301 16.52273
189.798676 5.0
190.168823 45.640202
191.103333 270.96109
191.143066 7.5625
191.304184 5.3125
191.326447 17.202499
191.350174 19.92985
191.412476 5.043269
191.731049 43.41177
192.093872 27.60495
193.09819 132.057907
195.075211 201.667999
195.11763 37.96154
195.253845 10.11141
196.085709 82.525002
197.095673 1043.599976
197.129852 127.903503
197.158493 12.00169
197.261093 22.03409
197.353943 20.523809
198.185638 3.525
198.533997 6.722222
199.074661 121.300301
199.110199 1265.291992
199.158066 33.846149
199.171371 7.104167
199.190903 10.5625
199.501511 26.03289
199.687119 9.511364
199.844467 11.00735
199.918243 22.55007
200.849625 6.6
201.095169 76.20417
201.126968 199.830704
201.164658 8.0
201.176376 6.9
201.209061 2.506944
202.296188 8.760417
203.102982 76.942352
205.098602 64.5625
205.129929 60.33432
205.283371 13.5625
205.908997 7.797794
205.96431 9.153846
206.105865 123.883301
207.115005 151.542892
208.046524 7.5
208.082703 54.949471
209.09584 484.262207
209.134033 34.351971
209.154449 2.625
209.458939 6.011364
209.524582 15.14286
209.786331 14.51442
209.837616 9.113426
209.866959 10.0
209.893509 4.5
210.173264 3.78125
211.111298 863.493896
211.175461 9.622115
211.283005 7.5625
211.440506 6.340278
211.664993 11.88281
211.88266 9.05388
212.927109 8.533334
213.085327 122.836403
213.127304 534.063416
213.241974 10.8
213.267914 11.11539
213.343719 6.25
213.369293 11.02083
213.546967 19.52083
214.093857 132.5811
214.16246 3.0
214.412186 21.02083
214.952332 13.92105
215.081314 50.15686
215.105118 120.680603
216.095917 29.21875
217.094757 18.029409
217.125977 256.620087
217.170547 14.07044
217.212646 2.53125
217.85672 70.320503
220.412415 18.16118
221.094757 570.373596
221.129349 85.666656
221.571945 19.565161
221.877731 6.160714
222.101715 290.265808
222.302704 21.550211
222.411636 15.69565
222.941925 12.66898
223.111771 3393.084961
223.177536 42.25391
223.206146 13.53472
223.232132 30.0
223.254501 4.9
223.272705 6.041667
223.308456 10.0625
223.335815 21.63682
223.431732 41.796051
223.486496 18.08654
223.595856 10.00568
223.616943 4.504167
223.699448 9.043269
223.731598 26.822769
223.752228 19.16806
223.90181 14.45
224.022873 30.00379
224.18956 19.66667
224.538681 18.01923
225.096298 50.128181
225.126785 1307.264038
225.304901 20.62812
225.416138 8.0
225.531296 47.422218
225.556305 35.503792
225.63475 12.00833
225.723587 18.18531
225.749725 20.54018
225.838593 6.517857
225.953491 26.73053
226.388733 9.328804
227.026871 6.604167
227.087753 54.190109
227.142441 384.2883
227.520782 19.22238
227.568314 8.0625
228.306732 5.833333
228.454926 16.52083
229.08197 36.19136
229.124084 69.637619
229.153625 62.063831
229.286804 7.347222
231.098557 114.392601
232.086899 30.7125
232.120407 46.85519
232.256546 4.004807
232.898529 24.367649
233.099243 50.304569
233.125977 61.50069
233.164047 2.53125
234.10231 209.695801
234.653824 13.51197
235.115509 483.015289
235.14502 77.12896
235.203049 3.006944
235.266235 2.666667
235.48056 3.551136
235.694153 3.504808
235.747559 11.05787
235.775162 25.393379
236.258453 31.75
236.59729 3.625
237.092422 166.394501
237.127426 1756.916016
237.193649 8.625
237.24556 8.633152
237.307968 22.242649
237.433136 3.520833
237.524292 20.14205
237.566711 24.105261
237.776337 12.52778
237.859497 3.25
238.003662 21.57065
238.167725 47.70295
238.452744 15.75521
238.69458 2.580357
239.09874 19.667521
239.142044 2250.144043
239.205429 13.52941
239.235016 3.9375
239.334854 33.341911
239.366867 19.005951
239.442337 24.502159
239.528366 12.02273
239.636063 15.24564
239.656677 10.16071
240.035873 12.89286
240.212646 8.020833
240.697113 6.041667
241.126465 35.41848
241.157791 470.313904
241.324646 5.104167
241.557281 8.005682
241.584137 8.55388
241.724564 6.006945
241.745132 6.946429
242.10788 8.1
242.821548 17.69556
243.097168 24.52261
243.113998 91.184433
243.143967 5.025
244.122437 94.720703
245.098068 113.7565
247.110886 904.073914
247.145386 146.0849
247.23674 5.6125
247.316986 14.94055
247.464432 5.235577
247.486816 25.042009
248.231461 5.529605
248.346252 8.680147
248.761322 14.44643
248.929443 18.50189
249.12793 980.278687
249.159729 319.668213
249.186279 6.051136
249.246506 9.5
249.307114 13.04735
249.466248 18.816891
249.58165 9.142858
249.609924 35.002838
249.721939 4.6875
249.782303 4.5
251.102966 80.570419
251.143295 917.453918
251.227661 18.786989
251.311142 28.14286
251.398636 16.055679
251.464828 5.5
251.531082 6.722222
251.568466 9.444853
251.624985 3.125
251.832657 2.53125
252.033585 26.162161
252.580353 29.524799
253.122726 122.519798
253.343933 9.8025
253.371689 8.0025
253.427246 17.73472
253.504608 3.520833
253.687424 10.65341
254.814468 16.55574
255.136108 195.927597
259.145996 56.761021
259.713226 40.460232
260.118469 575.476807
260.285278 15.79605
260.350677 8.0625
260.457764 8.1875
260.677826 8.020833
260.998108 11.5668
261.127563 679.053528
261.161285 303.877991
261.196899 33.140831
261.577301 8.220109
262.029175 13.02083
263.086975 33.640629
263.142853 1809.935059
263.232086 35.521858
263.291626 5.833333
263.318787 23.335119
263.347412 3.541667
263.380676 14.22321
263.414764 25.583111
263.454041 9.661184
263.539093 7.266448
263.765106 17.1875
263.872314 22.5
263.900574 16.66667
263.940125 15.01852
264.034515 18.68371
264.110718 44.411369
264.511292 10.5152
265.121124 124.070297
265.157715 2209.605957
265.245148 19.226669
265.299774 17.51042
265.371521 42.320518
265.407288 17.231421
265.446259 6.03125
265.525757 13.09191
265.643524 16.75625
265.666779 11.51042
265.689697 9.541667
265.726715 49.713539
265.860809 3.166667
266.024231 18.0194
266.166168 1838.890991
266.243561 11.3
266.27951 12.1
266.444183 3.551136
266.512299 12.01136
266.634033 13.3225
266.654388 10.82143
266.702454 29.297409
266.79187 53.027439
266.846893 4.225
266.887299 15.52741
266.93576 3.551136
267.087738 7.125
267.135651 80.059998
267.175079 1655.31604
267.246796 33.531651
267.319153 35.66983
267.410431 14.82703
267.470917 63.431252
267.507141 10.51442
267.854492 4.6875
267.887238 9.6
268.047974 5.50329
268.814819 24.0
269.148346 13.32237
269.194305 22.89089
269.569733 11.29779
270.233917 5.704167
273.118103 13.20439
274.134796 860.885803
274.200867 28.91848
274.29776 24.525
274.383759 21.52562
274.418823 10.5025
274.528503 14.01607
274.95517 31.50391
275.037506 12.0625
275.5896 19.444441
276.237305 12.28125
277.122681 24.15313
277.159271 1472.012939
277.348633 7.517857
277.418884 52.787498
277.534668 22.79719
277.557098 36.687031
277.669708 17.637501
277.784729 7.5625
278.127289 55.50069
278.316986 24.05191
278.749969 11.4
278.903473 3.551136
279.141632 174.478104
279.173615 2401.636963
279.246124 11.22011
279.267548 9.711111
279.340088 28.663309
279.361633 11.20455
279.441284 4.6875
279.494598 29.260201
279.612518 77.74334
279.778229 82.646927
280.078461 31.29302
280.384064 2.6875
280.439392 13.73684
281.151703 287.762787
281.410889 4.625
281.958618 12.19837
283.13147 57.01165
283.167755 304.597809
283.371552 27.81031
283.51416 34.797791
283.565643 4.778409
284.090576 45.439209
284.433319 9.502976
285.183655 1008.06897
285.260437 14.12348
285.419128 8.580358
285.58371 7.541667
286.018921 6.082237
287.037689 7.082237
287.143097 28.570311
287.361938 17.538111
287.386047 35.597561
287.473999 16.699289
287.50769 16.3288
287.5448 17.13682
287.845917 20.3125
287.957886 4.020833
288.736603 16.944639
289.103638 92.902969
289.158234 3679.822998
289.221588 2.520833
289.258118 16.842991
289.366486 22.58285
289.431152 10.39063
289.449615 18.80179
289.488892 9.524457
289.531281 37.85635
289.625061 19.0016
289.668488 29.763321
289.720734 2.666667
289.815582 36.786709
289.856995 38.744999
291.682678 9.222222
291.72641 25.351851
292.101318 7.142857
292.139282 173.117203
293.410461 14.02083
293.892853 16.673611
294.106323 15.56806
294.163666 206.476593
295.167328 610.449585
295.299805 25.183821
295.402771 9.459239
295.767242 11.01372
296.45578 15.30179
297.150818 160.569
297.181976 301.156799
297.258728 2.5125
297.299316 10.6125
297.378693 10.1125
297.449463 10.1
297.594849 22.367649
306.354431 9.026786
306.451996 24.50658
307.167664 3458.241943
307.245636 20.422501
307.268463 8.541667
307.352722 33.941181
307.384338 11.50216
307.533112 15.42333
307.615326 42.66346
307.691742 16.16346
307.896912 16.980049
307.91745 4.571429
308.080048 7.0
308.282288 23.14286
309.033356 17.53064
309.376556 42.963871
310.153656 42.570679
310.408417 10.32721
313.179016 154.1875
313.338196 24.00568
313.529144 28.89352
323.165833 9.091911
323.240662 2.5
323.309631 8.5625
324.163086 21.42857
325.179993 2691.582031
325.24527 3.0
325.320557 37.502659
325.339417 16.02471
325.38562 9.725
325.427551 6.551136
325.446381 10.3288
325.479156 20.58285
325.504578 5.4
325.932129 22.148809
326.018951 10.5
326.036255 14.01197
326.82785 3.673611
339.252197 6.0
341.061584 10.14286
341.134033 56.26569
341.164398 10.53846
341.209381 10.625
341.232086 28.455641
341.4086 22.728571
341.871246 41.09111
342.212585 12.06618
342.830811 10.3912
343.103058 100.967598
343.13855 69.450989
343.190613 5489.312988
343.26886 55.620701
343.30542 18.27841
343.357727 4.083333
343.400452 21.586889
343.509308 26.504169
343.540344 29.70536
343.565216 19.002979
343.656097 64.511238
343.700989 48.500721
343.722504 23.2225
343.819611 59.10059
343.857483 38.555149
343.94989 15.58036
344.068542 16.0
344.118744 8.0
344.587555 19.339531
344.785034 17.65341
345.004883 13.52
345.309326 31.200001
345.695526 27.79167
345.748383 2.5
347.827972 16.921881
350.258789 6.503676
350.779846 10.50231
425.808685 9.223214
978.625488 15.5
