>compound Desferrioxamine E
>formula C27H48N6O9 
>ionization [M+H]+
>parentmass 601.357117
#inchi InChI=1S/C27H48N6O9/c34-22-10-14-26(38)32(41)20-8-3-6-18-30-24(36)12-15-27(39)33(42)21-9-2-5-17-29-23(35)11-13-25(37)31(40)19-7-1-4-16-28-22/h40-42H,1-21H2,(H,28,34)(H,29,35)(H,30,36)
#inchikey NHKCCADZVLTPPO
#Ion_Source LC-ESI
#Instrument qTof
#Compound_Source Isolated
#PI Fenical-Jensen-Moore
#Data_Collector Max
#Scan -1
#Precursor_MZ 601.358
#ExactMass 600.348
#Charge 1
#CAS_Number N/A
#Pubmed_ID N/A
#Smiles N/A
#INCHI_AUX N/A
#Library_Class 1
#SpectrumID CCMSLIB00000001621
#IonMode Positive
#UpdateWorkflowName UPDATE-SINGLE-ANNOTATED-GOLD
#LibraryQualityString Gold
#TaskID d14a5843653040ba9fa2c4376f2be358
##Scan# 1
#SpectrumFile d2.mgf
#LibraryName gnps_library.mgf
#MQScore -1
#Organism gnps_library
#TIC_Query 0
#RT_Query -1
#MZErrorPPM -1
#SharedPeaks 0
#MassDiff 0
#LibMZ -1
#SpecMZ 601.358
#SpecCharge 0
#internalFilename spec-00000.mgf

>collision 10
56.050453 216.351501
82.06546 198.849197
84.044495 291.282104
84.081734 11056.969727
84.166962 275.449005
85.086792 855.403625
86.096985 280.511993
100.039833 3117.533936
102.092087 3149.293945
110.097282 222.385696
112.040283 946.308411
119.117645 283.783813
122.097145 417.296906
137.107544 789.944519
138.092209 1360.844971
140.071503 391.707611
154.086609 3062.091064
155.090652 283.647614
165.102493 3951.846924
166.087082 8772.938477
167.089935 915.046082
168.102005 1040.217041
171.112045 192.212296
183.113113 8927.036133
184.107117 1345.031982
185.126984 569.088013
201.124039 56725.128906
202.126816 5900.729004
203.1315 615.507874
211.143951 585.121582
213.123108 236.618607
218.150101 227.728806
219.134613 2369.906982
220.137756 308.159302
237.123779 312.861206
265.118652 562.307007
282.147278 216.621201
283.1297 9513.424805
284.133575 1426.613037
284.193268 232.4711
285.138733 257.084503
300.155334 337.15271
301.140503 7328.708984
302.143433 1205.795044
303.144287 240.601501
319.235596 1916.901001
320.237549 364.678894
339.241028 209.816406
355.235596 389.774414
366.204071 711.545715
383.230316 2229.75
384.230682 576.52301
385.243225 300.697205
401.240631 97542.882812
402.243988 21828.849609
403.246033 3277.48291
404.24942 291.529205
419.251129 1648.953979
420.254456 395.772308
483.246277 1981.781006
484.249146 622.740173
501.256592 740.278503
501.339447 315.145691
502.261932 264.915894
583.346191 1598.338989
584.346619 678.859314
601.357117 186817.90625
602.360413 73606.578125
603.363098 15348.040039
603.580139 256.253815
604.36499 2223.407959
