>compound Rifapentine
>formula C47H64N4O12 
>ionization [M+H]+
>parentmass 877.4593499400905
#inchi InChI=1S/C47H64N4O12/c1-24-13-12-14-25(2)46(59)49-37-32(23-48-51-20-18-50(19-21-51)31-15-10-11-16-31)41(56)34-35(42(37)57)40(55)29(6)44-36(34)45(58)47(8,63-44)61-22-17-33(60-9)26(3)43(62-30(7)52)28(5)39(54)27(4)38(24)53/h12-14,17,22-24,26-28,31,33,38-39,43,48,53-55,57H,10-11,15-16,18-21H2,1-9H3,(H,49,59)/b13-12+,22-17+,25-14-,32-23+/t24-,26+,27+,28+,33-,38-,39+,43+,47-/m0/s1
#inchikey RISDZDVHYCURHD
#Ion_Source LC-ESI
#Instrument qTof
#Compound_Source Isolated
#PI Sirenas
#Data_Collector Ed Esquenazi 
#Scan -1
#Precursor_MZ 877.46
#ExactMass 0.0
#Charge 1
#CAS_Number N/A
#Pubmed_ID N/A
#Smiles N/A
#INCHI_AUX N/A
#Library_Class 3
#SpectrumID CCMSLIB00000004849
#IonMode Positive
#UpdateWorkflowName UPDATE-SINGLE-ANNOTATED-BRONZE
#LibraryQualityString Bronze
#TaskID d19310cd93df49b68e9fcbec27720eb5
##Scan# 6
#SpectrumFile Rifapentine.mgf
#LibraryName fda_library.mgf
#MQScore -1
#Organism fda_library
#TIC_Query 0
#RT_Query -1
#MZErrorPPM -1
#SharedPeaks 0
#MassDiff 0
#LibMZ -1
#SpecMZ 877.46
#SpecCharge 0
#internalFilename spec-00000.mgf

>collision 10
100.359161 3.933333
101.058624 268.4104
101.296616 18.93919
102.233566 27.000429
103.052071 36.31284
103.203171 3.342592
104.475784 14.81037
104.486511 18.00952
104.504288 9.04344
104.54879 9.082317
104.674202 11.44599
104.819481 10.00833
104.870918 4.366667
105.017036 3.0
105.032005 16.6674
105.069801 3616.592041
105.116829 36.24139
105.131149 5.022059
105.145195 12.95417
105.159683 8.740741
105.259598 7.399193
105.29258 16.07626
105.298996 6.615
105.315689 13.39726
105.345276 4.721491
105.368965 7.148809
105.385849 10.16071
105.413223 11.9881
105.455299 12.95833
105.534615 48.33691
105.678566 8.083333
105.852921 9.02671
105.971497 9.1875
106.077827 56.73402
106.462456 26.57102
106.480217 10.05797
106.494576 4.340278
106.548569 4.8
106.592094 3.555556
106.620644 42.31245
106.645638 10.56048
106.667358 9.703704
106.680328 27.56793
106.684502 24.148809
106.693771 16.748871
106.710091 3.691667
106.731499 13.34028
106.741409 48.120998
106.754982 7.160088
106.768623 14.0947
106.774788 11.21333
106.782059 6.840278
106.821526 6.011364
106.846893 10.8375
106.892914 12.85312
107.049652 107.912201
107.08564 25029.609375
107.130348 180.013306
107.144691 118.519699
107.163368 21.34234
107.170845 26.1938
107.181732 66.857727
107.19088 96.25956
107.2034 23.770121
107.214905 12.93149
107.224815 45.650311
107.246727 67.644669
107.252625 27.50877
107.267372 13.79167
107.278374 17.606819
107.286659 82.429588
107.302048 13.06833
107.308334 18.14822
107.334976 79.736847
107.347153 11.6875
107.354652 19.04167
107.361267 6.306159
107.378456 38.64365
107.390381 10.49342
107.407509 34.37307
107.418602 12.82353
107.430077 9.463542
107.440826 14.35
107.46595 17.08333
107.4729 21.54528
107.487747 14.59375
107.498566 14.19048
107.516937 30.396351
107.523811 7.668478
107.531029 10.02671
107.548363 7.598684
107.556694 11.57615
107.574326 7.685185
107.584122 8.408334
107.593254 5.041667
107.609879 44.788502
107.664978 64.184273
107.780067 14.01799
107.924118 38.202412
107.949852 13.47619
108.018433 12.00758
108.056335 91.108093
108.146988 8.708333
108.272133 27.49555
108.308296 17.95402
108.326149 28.712219
108.361832 10.89744
108.442032 12.68519
108.464981 123.5429
108.484993 38.530762
108.512146 20.00107
108.517975 8.382936
108.532127 19.75132
108.589592 6.081667
108.645332 12.66987
108.652809 15.79012
108.681274 5.415
108.705864 4.115741
108.721176 13.07295
108.800995 13.1974
108.862694 17.00877
108.895996 5.703947
108.912567 12.66793
108.942604 6.564103
108.992409 5.083333
109.02626 144.736694
109.064613 11413.469727
109.100868 10074.5
109.145706 210.717697
109.161072 57.331711
109.210602 24.124029
109.216316 36.365131
109.229805 18.768749
109.240517 3.678571
109.259415 24.23184
109.266724 83.410011
109.306458 26.24766
109.340233 30.06719
109.35144 4.666667
109.368813 13.68254
109.382126 10.75812
109.39698 31.68313
109.41523 22.497971
109.43396 20.541531
109.446922 7.013889
109.500259 52.462269
109.545471 10.97024
109.593788 14.71354
109.611473 5.695513
109.618996 13.00076
109.632286 8.12037
109.649101 27.929079
109.677223 44.10778
109.706429 14.34667
109.749069 22.9974
109.787338 10.29688
109.876869 37.97131
110.126976 14.43207
110.191589 6.125
110.274399 6.013889
110.297516 5.049603
110.326752 8.088889
110.385254 11.15789
110.437332 20.22283
110.516693 19.20455
110.532608 17.405319
110.559204 4.125
110.593658 4.408333
110.64193 17.054489
110.661522 24.91313
110.708664 7.680555
110.729477 6.001984
110.743713 16.099449
110.750893 8.635753
110.762016 11.43622
110.777534 9.711021
110.805954 4.002778
110.83757 4.6
110.8573 15.80064
110.909706 3.6
110.928246 32.21291
111.043404 873.325989
111.080055 6708.816895
111.112968 408.345093
111.121849 109.742996
111.146347 30.831739
111.179619 10.19853
111.19175 13.95066
111.20903 27.446899
111.223801 11.37745
111.231941 18.5
111.262131 24.02632
111.281944 11.68889
111.299721 25.38294
111.318649 63.803371
111.336456 20.372021
111.375488 3.345238
111.381645 6.025641
111.411018 6.696428
111.422081 20.000931
111.477242 5.09375
111.504738 26.38283
111.532692 13.78125
111.694099 9.063725
111.703987 14.01389
111.774841 10.79167
112.011101 10.29688
112.036186 7.605556
112.129189 30.646299
112.186195 14.98994
112.360359 9.267858
112.443565 12.84028
112.474663 7.755435
112.482765 5.121212
112.515343 8.015873
112.838074 14.38782
113.059822 1184.322998
113.095322 445.143188
113.147247 3.333333
113.184258 6.337963
113.339676 10.46354
113.361977 10.03947
113.449318 14.60556
113.478027 7.280303
113.495361 7.130208
113.754944 5.668333
114.405197 27.157049
114.424141 21.096889
115.038635 315.329895
115.068558 12.39096
115.076134 179.879303
115.202888 13.34167
115.513016 6.395833
117.069077 638.327576
117.462982 4.013889
117.476791 8.0
118.005447 17.246981
118.33223 4.013889
118.371384 3.75
118.466774 17.252081
118.553879 11.69551
118.568787 13.43561
118.648972 36.510159
118.823799 17.56579
118.872482 14.6875
118.993683 8.0
119.046089 93.971588
119.085419 5963.77002
119.132744 31.239479
119.170364 22.233089
119.203842 37.589989
119.223434 17.22349
119.230263 9.8
119.250145 45.10717
119.265831 23.451799
119.285301 16.049999
119.29747 4.061275
119.304756 11.10256
119.338951 18.075001
119.373474 67.14473
119.409515 16.682541
119.42498 7.341667
119.474464 32.99107
119.482529 14.66667
119.528008 4.226852
119.563332 11.59259
119.594017 3.413462
119.701096 17.753469
119.7201 12.74242
119.765305 13.75512
120.058731 46.78009
120.315063 6.42803
120.356148 4.355392
120.405769 7.671297
120.421021 10.92064
120.440125 10.60093
120.459213 19.21562
120.501221 9.813725
120.524345 17.35088
120.545204 53.877541
120.569969 6.667735
120.585953 23.14286
120.604683 20.117029
120.641426 22.527571
120.657875 3.35
120.682251 14.37769
120.707825 10.5307
120.716492 8.401667
120.760323 9.340278
120.783722 8.461957
120.826042 11.51022
120.998184 6.75
121.027428 185.130798
121.06443 5099.743164
121.100708 10360.379883
121.147461 37.333679
121.163887 9.791667
121.171539 24.360821
121.207901 21.65173
121.222176 23.578251
121.235565 18.67647
121.246964 16.01071
121.254585 20.70076
121.263863 28.523809
121.276672 37.00528
121.291145 23.051929
121.301308 20.68873
121.311508 10.29688
121.338081 40.637981
121.353546 40.4189
121.37059 9.041667
121.389313 26.75559
121.418106 5.09375
121.438896 32.67392
121.446777 9.1875
121.454247 14.51062
121.46067 4.816667
121.475075 40.711811
121.501732 37.84985
121.528412 6.387821
121.567146 15.4998
121.578995 26.733891
121.598907 8.030556
121.616829 19.64209
121.630424 12.36742
121.657967 26.206051
121.670364 61.129478
121.710358 48.451481
121.868416 6.761905
121.931793 18.375
122.048988 7.666667
122.188217 10.48214
122.202858 19.66865
122.241524 7.339285
122.249199 34.570671
122.310745 11.57143
122.332802 17.030979
122.341194 22.347601
122.350533 44.520599
122.370087 22.36779
122.397697 25.44524
122.409401 18.28861
122.419014 20.901711
122.436279 25.39677
122.447403 97.861977
122.462746 98.966187
122.489616 24.21505
122.506409 46.287449
122.522308 47.736389
122.552986 4.408333
122.56839 5.430555
122.577728 20.69648
122.587654 11.41987
122.599197 14.44583
122.616684 27.377781
122.639648 8.291667
122.684418 6.683333
122.72924 10.8447
122.745949 42.80452
122.757156 20.339689
122.787041 17.42477
122.807297 7.486111
122.872864 20.851851
122.887558 7.166667
123.043671 357.5065
123.080414 31972.919922
123.115395 2634.829102
123.184441 14.14468
123.196632 24.075251
123.2099 62.012009
123.223228 47.440109
123.247803 25.8141
123.253403 69.852364
123.273712 134.5
123.29538 29.189529
123.302467 13.35119
123.31842 72.346718
123.329918 31.99017
123.338181 15.83841
123.36866 58.941872
123.377419 23.964291
123.393433 58.990662
123.409813 120.573601
123.430885 45.569839
123.475159 16.33415
123.486107 17.29611
123.503174 19.59375
123.509911 5.522727
123.520531 40.622311
123.531853 54.477329
123.564087 19.67174
123.575928 58.06303
123.601944 28.93631
123.630363 51.693111
123.646774 44.2178
123.660789 5.342593
123.66748 12.85201
123.68409 19.662979
123.691795 20.110359
123.733078 27.353571
123.761406 8.333333
123.783432 55.16563
123.841927 16.946699
123.850685 21.1276
123.982094 8.0
124.008598 27.87121
124.112411 903.255188
124.222069 18.435301
124.244331 13.53488
124.340385 35.761398
124.358322 13.65355
124.484039 47.95237
124.625908 20.334181
124.63372 4.355392
124.662483 4.518939
124.673447 13.33333
124.682602 50.44873
124.711403 9.797101
124.726952 14.85057
124.761917 11.40221
124.975731 5.04529
125.058723 945.793884
125.095757 9325.917969
125.144905 109.434097
125.162247 18.667789
125.191452 34.622639
125.203926 21.63158
125.214149 25.32065
125.23642 8.102564
125.292213 55.83989
125.341621 15.78998
125.353699 12.66912
125.380524 8.700757
125.389549 14.66793
125.407936 24.403099
125.425079 9.798913
125.442863 8.523648
125.460297 24.37184
125.469009 20.387819
125.502419 19.187149
125.534531 19.115721
125.571678 11.51597
125.599609 11.11574
125.614357 10.44537
125.625618 30.05266
125.750511 6.453432
125.814674 13.55648
125.98114 4.025
126.164734 14.04891
126.473656 9.386905
126.598824 3.413462
126.645821 18.07547
127.035614 141.839005
127.050293 27.388889
127.07547 288.854889
127.110985 169.434296
127.186676 8.024224
127.488953 17.592239
127.62973 23.68174
128.30336 9.733334
128.741135 5.346264
129.05249 88.680702
129.068069 135.641602
129.142212 40.138519
129.432861 6.880952
129.762833 38.198582
129.888474 15.34295
130.077484 242.305801
130.41626 11.04003
130.861603 3.011905
130.973145 16.480391
131.052704 32.34444
131.084717 920.333679
131.135498 4.259615
131.295761 10.72854
131.312241 9.061275
131.343582 8.337501
131.391449 6.335784
131.407379 17.20937
131.426086 15.60606
131.838654 15.5328
132.062286 11.6796
132.094009 47.075001
132.358261 16.17778
132.378235 9.334596
132.386246 13.05037
132.446289 4.666667
132.464035 14.70946
132.494873 17.25
132.508026 13.93889
132.542511 8.333333
132.567902 15.93426
132.746735 11.66667
133.064667 1129.241943
133.100693 6523.213867
133.147903 20.497971
133.160019 9.829301
133.166977 24.672041
133.185287 10.92045
133.217697 25.339911
133.228165 6.363636
133.238235 22.17342
133.292419 6.081667
133.31192 66.554382
133.330826 9.716269
133.352753 10.64209
133.36441 6.069445
133.416962 7.028153
133.436752 31.82818
133.446259 42.401459
133.466644 19.45833
133.509583 26.61721
133.517441 7.472222
133.577805 5.375
133.610031 10.73684
133.638062 9.527778
133.67897 7.481667
133.734787 18.84009
134.024567 10.75
134.072754 3.335526
134.247269 9.523551
134.263306 56.73967
134.275772 10.27222
134.294281 6.25
134.302475 5.840278
134.330688 8.341666
134.347153 5.520833
134.363922 9.440476
134.379013 16.12114
134.391129 6.037037
134.403275 7.757883
134.417755 16.38636
134.427734 86.135872
134.490021 20.67915
134.503403 20.210251
134.521301 9.704545
134.528442 7.291667
134.547928 57.357342
134.563126 44.721699
134.578247 4.482143
134.610764 19.68796
134.774582 8.732527
134.858246 22.07
134.911926 8.442204
135.079987 13603.799805
135.116409 6960.27002
135.162628 106.432602
135.174728 22.008329
135.190887 3.002778
135.211136 79.906372
135.221405 74.789642
135.235016 33.75983
135.2435 20.67593
135.25386 27.8694
135.286636 43.1171
135.296112 15.675
135.312119 44.373871
135.322418 32.853451
135.333435 38.119701
135.360825 34.698151
135.377167 10.0375
135.384491 19.776011
135.39502 11.215
135.406128 17.050211
135.447632 10.79891
135.457199 10.375
135.47673 34.815788
135.49826 70.901451
135.512283 32.441559
135.525497 111.094299
135.550461 25.14286
135.609482 12.36111
135.617966 13.91667
135.633179 20.71266
135.646866 19.79273
135.677673 24.165079
135.688431 5.367424
135.840881 97.299362
135.928177 18.001341
136.186081 16.67111
136.239365 19.963051
136.267227 19.04167
136.30246 13.69231
136.329483 13.79953
136.370621 105.736099
136.397949 17.89167
136.419678 62.578678
136.449173 26.060499
136.473373 28.700439
136.558548 10.11111
136.565659 3.375
136.602463 18.115391
136.640015 9.8
136.679459 10.85799
136.71373 48.078468
137.059158 1559.729004
137.095627 13182.769531
137.131607 2902.599121
137.183075 22.85689
137.197311 57.16151
137.230881 83.742867
137.241348 14.45833
137.259781 15.51852
137.270172 7.44079
137.31134 78.847366
137.335083 12.4563
137.342636 9.107456
137.369995 37.42725
137.388855 21.603331
137.400055 28.388371
137.415604 59.964821
137.433746 10.29688
137.447083 25.935579
137.468842 13.86111
137.483414 34.222778
137.490173 7.656609
137.502258 15.00877
137.56778 21.256201
137.576019 21.79871
137.608353 16.023439
137.629089 8.081897
137.650818 86.47641
137.669571 6.33477
137.685135 13.57857
137.764374 29.5317
137.775742 5.669445
137.800217 4.340278
138.000961 9.314103
138.044022 10.64103
138.114761 85.133263
138.250778 12.89286
138.267319 15.95833
138.282135 5.564815
138.326614 9.960366
138.373672 10.94293
138.37999 9.314103
138.400635 13.07576
138.435059 13.7219
138.474869 9.05235
138.483398 16.790211
138.491241 19.72891
138.54039 6.001263
138.572662 8.683333
138.677597 6.75
138.721497 8.053572
138.764679 25.827391
138.828995 10.59259
138.838669 5.694445
138.854385 8.297619
139.07518 5227.937012
139.111511 1529.281006
139.163483 17.466669
139.175827 15.11538
139.184006 6.755556
139.211868 6.370614
139.226776 10.75521
139.245316 19.79545
139.270813 16.85965
139.296402 16.207251
139.322296 10.74856
139.335434 3.375
139.344116 23.33737
139.352631 4.001812
139.372864 9.753472
139.397507 9.063492
139.41394 9.737037
139.42421 18.455391
139.484222 10.08854
139.50708 3.520833
139.526855 9.968915
139.549469 25.008329
139.651886 14.15648
139.693314 10.48611
139.857925 10.17754
140.014862 15.49167
140.2202 4.341667
140.257278 6.482143
140.343811 8.491228
140.426254 14.01449
140.811279 7.653986
140.898682 19.29167
140.951981 19.42178
141.089951 1018.807007
141.135666 87.720238
141.194092 14.07716
141.305725 14.37143
141.367767 10.3555
141.794128 15.00901
142.0755 141.890793
142.411835 11.33426
142.494507 18.0
142.725235 6.136111
142.752686 4.033333
143.06633 28.612249
143.084137 830.162292
143.243576 8.4375
143.276917 6.146739
143.296753 19.58534
143.314362 4.774123
143.331039 14.04025
143.405899 13.46261
143.498734 14.38043
143.877151 5.340278
144.175034 12.78947
144.190277 16.667521
144.358093 10.66667
144.440842 15.36149
144.508347 4.6875
144.533035 6.728535
144.572784 6.0
144.590347 3.760417
144.700394 16.80694
144.758896 15.47141
145.100769 7996.591797
145.152008 82.830231
145.169464 42.435459
145.192688 23.30876
145.205673 46.332432
145.216568 35.65567
145.236923 25.56019
145.245636 14.40653
145.253326 18.35677
145.274277 6.805555
145.324173 17.058781
145.345703 25.010099
145.372589 57.50584
145.417709 16.16379
145.523346 8.041667
145.537857 43.976311
145.555344 52.250278
145.579773 23.902109
145.593155 9.442204
145.723328 17.405001
145.774384 11.03716
145.972473 6.906746
146.229614 13.3795
146.257019 15.04748
146.30368 16.747129
146.324112 7.678572
146.339691 77.294144
146.380768 80.875092
146.403183 39.635029
146.429413 22.6901
146.439056 6.98077
146.475967 6.75
146.506927 8.775641
146.601151 5.15
146.638123 6.333333
146.682556 11.79688
146.718185 8.127748
146.855164 15.21774
146.97847 4.720238
147.036514 15.29167
147.044937 10.56522
147.079697 1578.276001
147.116119 12027.099609
147.167084 124.8965
147.184418 36.86245
147.217636 22.44141
147.234833 6.671568
147.246841 27.36006
147.264954 15.41974
147.284561 79.889542
147.30629 19.66667
147.320786 12.68333
147.35762 8.081897
147.417389 27.430269
147.428864 24.726191
147.440155 47.908718
147.454422 11.0
147.487015 38.584721
147.5056 21.008789
147.533768 30.036169
147.545258 16.686371
147.569016 9.047619
147.599091 9.672222
147.607376 36.24279
147.638245 3.541667
147.653244 3.490385
147.699554 51.182049
147.767593 11.26667
147.806335 14.38043
147.873718 3.926282
148.137543 35.68055
148.2285 9.789634
148.299622 7.773809
148.347321 17.632401
148.437225 17.853809
148.4785 10.08333
148.499573 16.523809
148.571777 6.700269
149.05896 1333.666992
149.095993 2395.908936
149.131714 2113.61499
149.17308 11.37061
149.183029 6.673611
149.198563 5.088768
149.210648 5.458333
149.226501 10.95833
149.243958 10.04845
149.279083 15.97201
149.313721 15.82996
149.33461 3.75
149.387054 8.724999
149.396362 18.76359
149.416901 3.722222
149.459351 7.070402
149.492752 17.65789
149.557251 7.605556
149.616211 4.458333
149.694031 5.333333
149.703415 10.08333
149.773544 18.94792
149.8022 17.86857
149.829269 3.791667
149.861435 5.592949
149.973373 9.32545
150.047028 23.16959
150.156403 33.43261
150.173798 22.222219
150.184418 20.082319
150.195572 84.480133
150.208633 17.342051
150.223801 21.625
150.237 65.25045
150.24704 21.03841
150.261108 37.546719
150.278839 35.323528
150.287521 66.351402
150.295273 54.231339
150.306763 67.491768
150.331985 85.16571
150.345825 26.066669
150.356461 60.389671
150.373352 91.319649
150.387146 19.5375
150.414215 32.041672
150.423828 75.912331
150.435318 15.48
150.45723 22.375
150.465454 9.708333
150.479019 33.174461
150.504227 166.239197
150.528397 97.914726
150.558884 46.008869
150.573608 18.5
150.589218 33.899101
150.610367 25.1
150.639496 45.713428
150.652603 16.340691
150.685287 43.071812
150.715668 19.293699
150.772171 18.085711
150.819275 12.5
150.843338 15.00694
150.888031 19.711109
150.910172 20.832939
150.93602 12.09339
150.956192 20.637779
151.050522 25.1201
151.075409 92541.609375
151.121582 3739.846924
151.395416 190.854004
151.403961 35.531609
151.42601 96.883926
151.436234 41.785259
151.460983 198.931305
151.479813 48.72459
151.514908 96.889236
151.550873 38.653728
151.562683 16.52758
151.571503 50.647411
151.590683 14.03241
151.599823 110.099503
151.619949 58.770939
151.646317 79.759109
151.664474 101.992401
151.674835 23.70928
151.68988 90.39328
151.703079 77.106041
151.713409 10.92064
151.736282 54.828232
151.748611 25.10569
151.762756 94.896782
151.778931 19.30472
151.792526 20.981979
151.802612 31.25774
151.825836 93.452042
151.848358 21.774191
151.859665 58.296101
151.877014 18.956249
151.937363 24.88258
151.976349 28.81905
152.013046 50.537041
152.129883 2158.846924
152.197632 6.421297
152.224625 63.162491
152.250717 40.32008
152.27597 63.716751
152.290756 27.539101
152.303421 59.39975
152.313248 3.597581
152.323624 52.706829
152.34407 27.658119
152.364624 150.545593
152.408279 16.36458
152.438461 26.13806
152.447021 9.033603
152.518524 36.347721
152.553101 19.388439
152.568542 77.559181
152.622131 25.93915
152.740631 94.47171
152.752731 19.80064
152.79422 14.69823
152.902679 17.016029
152.960526 12.39782
153.000061 15.25493
153.005875 13.67188
153.02739 21.41638
153.049103 16.00079
153.060806 181.178101
153.090469 16925.119141
153.137985 8175.403809
153.189346 33.154758
153.205093 64.702316
153.25531 81.7854
153.284973 83.378128
153.296219 24.395201
153.306839 39.690689
153.31572 36.688721
153.324585 21.65661
153.333389 30.724541
153.347931 52.49794
153.380554 5.408333
153.404282 38.0
