>compound cyclo(L-Phe-L-Pro)
>formula C14H16N2O2 
>ionization [M+H]+
>parentmass 245.127777
#inchi InChI=1S/C14H16N2O2/c17-13-12-7-4-8-16(12)14(18)11(15-13)9-10-5-2-1-3-6-10/h1-3,5-6,11-12H,4,7-9H2,(H,15,17)/t11-,12-/m0/s1
#inchikey QZBUWPVZSXDWSB
#Ion_Source DI-ESI
#Instrument qTof
#Compound_Source Isolated
#PI Keyzers
#Data_Collector R Keyzers
#Scan -1
#Precursor_MZ 245.128
#ExactMass 244.121
#Charge 1
#CAS_Number 3705-26-8
#Pubmed_ID N/A
#Smiles N/A
#INCHI_AUX N/A
#Library_Class 3
#SpectrumID CCMSLIB00000007043
#IonMode Positive
#UpdateWorkflowName UPDATE-SINGLE-ANNOTATED-BRONZE
#LibraryQualityString Bronze
#TaskID 76b66bf1ccd04cec9993212b36387ea3
##Scan# 3
#SpectrumFile CDB02_15F_pos_MSMS_001_1.mgf
#LibraryName gnps_library.mgf
#MQScore -1
#Organism test_rob_keyzers
#TIC_Query 0
#RT_Query -1
#MZErrorPPM -1
#SharedPeaks 0
#MassDiff 0
#LibMZ -1
#SpecMZ 245.128
#SpecCharge 0
#internalFilename spec-00000.mgf

>collision 10
20.240782 16.125
21.361013 11.0625
22.41782 22.01136
23.400368 24.777781
24.163361 12.10227
24.628464 13.75
25.490669 20.125
27.103439 50.625
29.017941 24.08333
29.425817 21.008329
31.105343 10.05
31.758066 12.375
33.398335 13.20833
34.869045 42.01667
35.542294 12.0
39.230309 16.285721
40.47559 10.16071
43.12616 18.5625
46.951599 11.625
46.998505 26.33333
48.578484 17.05921
52.455658 14.57143
53.164082 28.361111
53.340736 18.285721
56.061543 14.40833
57.019623 66.760132
57.069679 51.520828
57.184849 68.625
57.325962 19.92045
58.598606 12.25
62.059189 158.546707
62.569397 16.875
62.982639 91.003052
65.512329 24.01136
67.049469 72.265633
67.074409 13.0
68.660133 14.28409
69.069504 74.680557
69.122406 10.55682
70.066864 2132.468994
70.142227 35.052631
71.084137 51.222832
73.189903 11.00961
73.455345 21.32143
74.26149 22.66667
76.959602 41.36742
76.976715 29.14286
78.432465 19.285721
80.164482 10.125
80.537086 25.240391
80.573296 37.041672
81.06897 296.603912
81.148315 20.200001
83.082275 15.225
85.073822 172.531296
85.103668 118.565201
86.089607 118.698303
90.977219 146.125
91.054535 34.222832
97.072281 55.555561
98.071648 87.120087
98.161842 18.008329
99.063301 73.470741
100.078255 210.027802
102.092415 780.764709
102.184212 17.008329
102.488884 22.0
102.669991 13.01389
103.095322 157.399994
105.04528 11.225
107.969528 147.031296
108.046043 53.265629
109.46907 51.25
110.101509 30.0
111.079636 162.334595
113.070107 117.633797
117.081314 41.00544
118.041481 40.32143
119.062683 21.92045
119.591614 13.33333
120.079422 529.241394
120.77356 12.08333
121.095413 125.240097
121.281548 24.009609
121.859795 12.00833
122.426407 30.0
123.112885 51.69397
124.080444 123.132797
124.127968 27.1
124.179863 30.29167
125.086014 52.015629
127.110481 32.004631
128.915802 11.01136
128.954193 124.573402
131.05162 102.764801
133.100784 10.225
135.075195 40.845001
135.113586 137.144196
137.612793 11.32143
139.103027 147.080399
139.164352 14.04167
142.098618 55.875
143.065018 87.002777
143.120422 11.0625
146.090561 10.45
146.221069 23.16346
147.736588 13.33333
149.235062 44.132351
154.078003 177.755402
160.103638 182.784607
160.344223 30.125
160.43483 11.45
160.912399 49.640148
161.113327 129.184097
163.009186 30.625
163.151657 147.740906
165.438507 29.225
168.522751 11.225
170.08577 29.23077
170.153671 13.66667
170.7603 12.0625
171.094315 59.05357
172.054092 32.901321
173.128021 68.875
174.286682 20.008329
175.953918 60.245689
176.547211 21.674999
179.062088 10.44643
180.173508 115.033302
180.213989 14.0625
181.178955 90.756149
181.724197 27.9
182.168762 80.047623
183.438339 46.030411
185.099838 39.391129
186.06723 22.57143
187.121948 670.277222
187.656143 11.5
187.767426 10.92045
188.022766 13.10227
188.12468 490.834412
188.66452 17.240391
189.134659 107.889198
191.174667 82.375
193.137711 57.49128
196.077347 42.00544
198.142044 99.202271
198.805374 13.36029
199.126617 291.783203
200.103912 52.125
201.110321 94.223213
202.068451 78.136108
202.103546 194.298096
202.85556 26.778851
203.112732 291.961914
203.281158 11.125
203.767654 11.16071
205.488892 22.322371
207.433746 10.01786
208.171158 447.865112
208.305313 10.24039
208.597351 12.125
208.632492 10.44643
209.183624 87.0625
209.862976 12.00961
210.106033 33.2663
210.165939 14.625
210.254547 24.04167
211.148926 63.57143
215.117584 1486.452026
215.278976 17.5
215.428574 23.408331
215.601257 12.01136
215.834763 36.242649
216.119812 711.709778
216.515121 32.1875
216.620712 14.68056
216.664856 21.89286
217.134399 1272.03894
217.236832 17.20455
223.212387 12.05
226.102386 87.219597
226.183029 896.292603
226.3461 19.049999
227.077118 15.57143
227.136459 24.0
227.184662 95.637192
227.381302 11.34722
227.605499 11.0
228.132736 48.333328
229.132568 35.92046
229.265091 14.44643
229.627258 43.603569
232.044724 11.68056
234.257065 35.333328
235.497025 62.13044
242.984116 11.5625
243.117203 262.920013
243.176315 562.151123
243.282303 18.025
243.4814 10.16667
243.686325 342.020508
244.120987 733.680481
244.218262 85.089287
244.259491 101.013901
244.344696 33.007351
244.831268 35.005951
244.894791 14.08654
245.003204 32.083328
245.127777 8433.839844
245.267822 90.703697
245.309418 33.68597
245.457123 39.45454
245.57814 23.444441
245.812576 21.471149
245.873657 60.75
245.909866 11.5
246.039963 45.059212
246.133072 544.494873
246.179276 146.005997
246.266724 11.00961
246.31192 37.0
246.560638 39.875
246.67334 21.009609
246.793777 22.20833
247.099228 11.32143
247.805893 18.005951
249.116791 13.44643
249.614334 14.125
260.217682 64.00338
264.251038 19.53125
267.038605 19.008329
273.025635 11.16071
275.14743 12.0
286.640747 21.796049
289.879425 15.04167
290.360687 19.066179
301.438263 21.0
302.191589 494.030396
302.34906 15.01923
302.692291 13.125
303.01123 11.47115
303.203278 178.583298
304.194122 32.03125
308.277557 10.10227
312.536102 42.805
312.945435 15.08333
313.226379 28.53289
316.149109 48.603569
319.421265 15.01136
326.01413 33.08654
328.542694 18.28409
343.816559 10.01136
344.725128 10.05
345.236084 114.694
349.528473 18.680559
354.745117 35.165321
357.762939 11.125
361.88562 11.24039
365.257507 10.10227
373.048981 10.0
373.147736 35.111111
375.690491 14.00833
377.872559 14.375
388.779053 12.55682
398.31076 71.537788
399.226685 29.008329
402.552063 16.25
408.150604 16.035721
412.323578 29.0
412.649628 35.025002
416.812714 44.816669
424.299255 86.716843
425.999359 20.242649
427.391296 18.008329
428.136536 24.14286
428.770294 12.03571
430.218597 23.08333
430.323242 36.416672
430.763306 12.2
432.807922 33.005951
441.282837 42.777779
441.500214 25.408331
444.671448 12.05
473.11264 33.090912
473.851837 21.0
493.61441 10.01136
499.472687 34.32692
500.073608 17.04167
501.361633 30.02083
512.946045 39.0
517.112122 20.347219
517.643555 22.04167
526.513 11.025
542.111206 32.480259
548.586914 11.01136
549.639771 10.0
553.617432 10.0
554.778442 14.44643
557.487732 30.245001
561.483398 27.78125
562.434998 12.06618
584.100708 20.035721
618.599609 17.08654
638.069641 53.090912
639.303467 11.5625
650.735474 13.01786
652.784607 19.66667
657.393066 35.0
672.560791 14.025
674.847839 18.28125
682.517944 12.08333
686.794739 34.083328
725.814453 15.0
733.02533 14.25
764.342834 26.16346
766.474609 10.44643
773.927795 53.272732
787.244507 10.0
787.664795 11.01136
802.210815 12.5625
817.625732 30.025
833.387024 24.674999
837.026306 25.075001
842.620483 35.100811
851.552856 26.16667
867.023682 17.25
901.529907 31.16346
901.745178 14.03571
913.29834 12.25
922.415161 11.77885
925.928833 10.08333
927.480591 12.75
931.354492 11.0625
933.819641 58.028851
934.751892 11.04167
957.966248 10.375
966.832642 23.694441
979.068298 77.367653
980.880127 10.33333
988.044189 13.32143
988.26062 24.0
993.781677 56.24662
