>compound Vorinostat
>formula C14H20N2O3 
>ionization [M+H]+
>parentmass 265.156
#inchi InChI=1S/C14H20N2O3/c17-13(15-12-8-4-3-5-9-12)10-6-1-2-7-11-14(18)16-19/h3-5,8-9,19H,1-2,6-7,10-11H2,(H,15,17)(H,16,18)
#inchikey WAEXFXRVDQXREF
#Ion_Source LC-ESI
#Instrument qTof
#Compound_Source Isolated
#PI Sirenas
#Data_Collector Ed Esquenazi 
#Scan -1
#Precursor_MZ 265.156
#ExactMass 0.0
#Charge 1
#CAS_Number N/A
#Pubmed_ID N/A
#Smiles N/A
#INCHI_AUX N/A
#Library_Class 3
#SpectrumID CCMSLIB00000006062
#IonMode Positive
#UpdateWorkflowName UPDATE-SINGLE-ANNOTATED-BRONZE
#LibraryQualityString Bronze
#TaskID d19310cd93df49b68e9fcbec27720eb5
##Scan# 3
#SpectrumFile Vorinostat.mgf
#LibraryName fda_library.mgf
#MQScore -1
#Organism fda_library
#TIC_Query 0
#RT_Query -1
#MZErrorPPM -1
#SharedPeaks 0
#MassDiff 0
#LibMZ -1
#SpecMZ 265.156
#SpecCharge 0
#internalFilename spec-00000.mgf

>collision 10
100.039391 50.314709
100.073143 63.458309
101.04689 136.001099
101.663269 25.313141
101.794807 15.07551
101.812286 3.125
102.032059 38.397148
102.052231 296.117798
102.090157 1454.030029
102.109573 7.736111
102.132553 12.43413
102.148468 2.111111
102.197456 3.458333
102.218056 6.334459
102.267883 25.79657
102.337677 15.0
102.394348 4.125
102.453842 9.920635
102.651443 7.916667
102.868057 36.09259
103.052734 1883.985962
103.162842 7.442204
103.244751 9.076923
103.389107 9.091216
103.452789 2.695513
103.551689 6.75
103.612083 4.408333
103.847366 14.67014
103.85302 23.12043
103.906204 1.6875
103.93399 8.708333
103.987976 8.388441
104.010643 10.13611
104.048103 3320.52002
104.089508 4.854167
104.158134 13.67374
104.207924 11.09399
104.222054 9.361486
104.239861 20.827881
104.254028 11.68056
104.268227 14.33415
104.293968 18.297621
104.305672 23.190479
104.315674 15.30797
104.37925 27.545731
104.410271 25.69841
104.474396 29.59375
104.485161 19.352989
104.502815 6.347222
104.547661 20.4625
105.068382 79.027382
105.108406 5.573412
105.520378 16.26449
105.729767 7.130208
106.062767 980.884094
106.121773 2.14881
106.288918 8.818548
106.327995 6.675
106.730179 9.403735
107.385262 5.068182
108.04187 26.989031
108.080528 177.886002
108.243896 24.539351
108.363266 10.03728
108.491158 5.8
109.062447 348.796906
109.088928 55.389191
109.359116 11.82315
109.405876 7.240079
110.093307 259.719696
110.124313 5.335526
110.406227 3.386905
110.614052 6.677381
110.690903 13.0
111.079514 1957.718018
111.119545 3.675
111.124542 21.524719
111.173874 5.490385
111.202408 13.06833
111.209656 8.802777
111.232643 18.551359
111.350708 8.240196
111.468201 11.40221
111.527237 22.685419
111.854195 5.748333
113.019913 35.703789
113.964928 3.0
115.051285 77.513977
115.137199 7.074275
115.223083 21.773439
115.253525 12.01961
115.27523 8.041667
115.804115 9.557099
116.068916 50.086632
117.056763 247.004303
117.202492 7.592949
117.486443 8.005952
118.063347 635.404419
118.098366 2.361111
118.163651 7.653986
118.200203 21.040831
118.355331 3.047619
118.407196 11.53186
118.627983 3.675926
118.672104 4.266667
119.071404 924.442078
119.420036 23.26753
119.470238 4.066667
119.494087 1.741667
119.521309 14.60594
119.577675 7.6875
119.592545 3.458333
119.611374 6.007576
119.89119 11.83333
120.023003 60.23064
120.042458 12220.370117
120.107391 53.744228
120.121506 23.44676
120.133247 13.76587
120.140358 20.442329
120.170143 18.279449
120.180565 40.194191
120.2005 4.387821
120.211876 15.89963
120.227493 18.72208
120.237938 19.69515
120.25444 12.55254
120.264664 18.168209
120.276886 17.008329
120.286575 7.802778
120.298691 19.07456
120.309517 8.007576
120.320107 8.037499
120.332886 6.336538
120.373535 8.560185
120.381172 23.23457
120.399437 28.224279
120.412117 35.035389
120.418816 27.245001
120.434639 15.32527
120.460747 16.707491
120.539642 36.618469
120.560638 18.868589
120.630173 25.128401
120.659973 17.10677
120.766991 11.35874
120.778786 10.21429
120.820518 12.40514
120.851112 20.222731
121.000359 8.125
121.063271 1495.665039
121.266037 10.02821
121.306633 6.00926
121.325943 7.656609
121.589836 3.115741
121.613251 4.107143
122.190704 13.44004
122.747749 2.041667
124.45726 1.666667
124.865578 47.904999
126.08889 590.983887
126.297516 18.13611
126.331047 2.722222
126.491386 15.34167
127.049431 84.074623
127.385468 13.71514
128.059174 74.540291
129.068161 72.46682
129.090881 9.001068
130.062363 751.736023
130.109146 6.001984
130.16449 13.28656
130.267639 29.9126
130.279495 5.208333
130.407318 10.74405
130.534485 5.444445
130.716537 3.336111
131.321426 4.157052
131.421509 42.338459
132.04129 90.49131
132.078995 932.430481
132.130463 2.367424
132.300278 9.472222
132.324631 12.61232
132.380325 15.66945
132.49733 16.0
132.55307 10.85833
132.76796 9.481667
134.056351 98.350121
138.432022 9.38313
139.073883 882.745911
139.125717 5.002193
139.247757 4.335145
139.807816 6.160088
140.308975 6.408333
140.462906 5.444445
140.671768 5.666667
142.061539 4.047619
142.090561 6.755435
143.071808 87.671021
143.237396 12.85227
144.078247 231.546494
144.096115 210.044296
144.238922 4.59375
144.264816 3.075
144.287964 5.354167
144.649521 7.280303
144.899323 7.346264
145.087082 172.515503
145.403122 8.223765
146.05571 12.61364
146.128967 6.535
146.149963 10.9467
146.242462 9.088889
146.954163 6.552536
148.072006 295.238312
148.108566 62.344528
148.360611 18.70417
148.442551 4.44079
148.669113 7.757576
153.067917 26.752119
154.082428 102.235802
154.116776 1.777778
156.076553 80.29084
156.287384 7.725
157.085129 51.847141
157.328552 6.677381
158.053391 26.39683
158.094299 282.330811
158.145706 3.125
158.419144 10.70833
160.107208 17.014271
161.178741 8.647059
162.085373 192.773895
162.125778 320.189697
162.209442 15.37677
165.558426 13.0
169.097214 23.61343
170.09613 137.384796
171.102737 160.440598
172.071838 22.959181
172.130844 2.669444
172.629013 3.025
180.220886 16.83675
181.087585 54.42387
181.481796 7.852273
184.113434 54.32077
184.547226 2.367424
185.247772 8.45
186.123642 131.674103
192.287659 7.675926
194.057114 21.389641
196.116623 30.388889
204.427521 2.695513
214.120758 56.626419
232.130188 50.169048
319.11026 3.666667
356.607147 25.28381
399.9888 12.23184
440.950073 6.535
448.816528 3.708333
479.793243 6.667929
611.078186 22.94092
883.947998 4.340909
1230.193481 4.669445
1310.960938 32.98333
1539.142822 7.125
