>compound Loratadine
>formula C22H23ClN2O2 
>ionization [M+H]+
>parentmass 383.152802
#inchi InChI=1S/C22H23ClN2O2/c1-2-27-22(26)25-12-9-15(10-13-25)20-19-8-7-18(23)14-17(19)6-5-16-4-3-11-24-21(16)20/h3-4,7-8,11,14H,2,5-6,9-10,12-13H2,1H3
#inchikey JCCNYMKQOSZNPW
#Ion_Source LC-ESI
#Instrument qTof
#Compound_Source Isolated
#PI Sirenas
#Data_Collector Ed Esquenazi 
#Scan -1
#Precursor_MZ 383.154
#ExactMass 0.0
#Charge 1
#CAS_Number N/A
#Pubmed_ID N/A
#Smiles N/A
#INCHI_AUX N/A
#Library_Class 3
#SpectrumID CCMSLIB00000006522
#IonMode Positive
#UpdateWorkflowName UPDATE-SINGLE-ANNOTATED-BRONZE
#LibraryQualityString Bronze
#TaskID d19310cd93df49b68e9fcbec27720eb5
##Scan# 3
#SpectrumFile Loratadine.mgf
#LibraryName fda_library.mgf
#MQScore -1
#Organism fda_library
#TIC_Query 0
#RT_Query -1
#MZErrorPPM -1
#SharedPeaks 0
#MassDiff 0
#LibMZ -1
#SpecMZ 383.154
#SpecCharge 0
#internalFilename spec-00000.mgf

>collision 10
101.399086 2.520833
102.054939 5974.803223
102.098007 14.10294
102.106453 5.760417
102.202026 5.358974
102.215752 9.755208
102.294006 30.903669
102.555351 18.948099
102.650536 39.851582
104.04966 53.348019
105.25972 15.0651
106.065056 761.725525
106.554909 8.633333
107.231934 5.415
108.042969 130.940994
108.079575 317.051392
108.252937 9.469444
110.096733 1200.411011
110.158852 3.335526
111.045265 35.463501
115.054314 43.062241
116.050232 140.418594
116.071945 65.34845
117.057304 736.434082
118.065292 1691.547974
120.079987 229.976196
121.072357 49.6982
121.089104 122.816597
122.683472 60.844589
123.054688 30.34021
125.015282 268.316193
125.15081 11.56019
125.38826 37.395828
125.583328 5.097222
125.657402 10.00595
125.782112 16.68981
126.055222 6651.576172
126.106102 37.39576
126.133629 7.407407
126.355583 6.260417
126.401657 9.347222
126.738396 18.201191
128.046799 35.349869
129.073105 33.33374
129.383057 14.65988
129.857666 72.084732
130.065765 2216.61499
130.075821 56.7234
130.321121 19.745621
131.07254 1253.06897
131.349518 13.43347
131.387878 10.16329
131.65918 8.721774
132.081421 1187.217041
132.316254 16.75362
132.339844 31.543859
133.461349 9.005952
135.091553 37.70322
139.031998 240.626999
140.330322 13.11111
141.054565 34.95055
141.071548 656.562988
142.075211 172.526001
144.080963 1570.657959
144.102783 12.33402
145.3311 3.708333
146.09256 117.953102
149.01564 144.177002
150.351379 5.136111
151.031281 346.461304
152.062912 69.556702
153.046906 127.419403
154.064713 76.456139
154.085754 2942.924072
154.140015 6.334459
154.488693 31.75
155.069397 61.760681
155.182693 4.333333
155.846466 10.83
156.080048 493.76001
157.086105 199.144608
157.961563 5.136111
158.093323 126.756401
161.234207 12.69823
162.683441 21.853331
163.03009 296.743103
163.041016 9.388158
163.057999 80.292801
163.35704 10.64015
165.045578 221.6633
165.070145 781.814087
165.301071 6.069445
166.784149 12.1201
167.082092 104.390999
167.51387 5.347222
168.079819 220.954895
168.135422 12.44971
169.087265 257.30719
169.845291 11.46136
170.063599 63.54068
170.095779 270.803314
172.112152 89.900291
173.073303 35.228802
174.042191 59.67255
175.031189 413.438293
175.050903 72.14286
177.045685 365.149506
177.063278 79.432907
178.0728 278.266388
179.080536 323.288513
179.38826 11.60119
180.091461 451.611908
180.285049 11.94707
185.065781 57.605331
185.106018 38.75164
185.595978 6.04529
187.029236 287.023987
189.045197 292.613586
189.064514 134.0672
189.99205 9.556818
190.065552 94.160873
190.077484 89.025093
191.02446 46.613918
191.072006 350.757294
191.086777 148.128403
191.909927 17.06349
191.933655 6.449713
192.080826 1674.583008
192.147629 14.84767
192.339996 31.42803
192.370667 45.193069
192.512405 22.67544
192.671829 15.69792
192.952164 4.531863
192.972183 24.597219
192.997574 14.68697
193.088669 5216.750977
193.149384 6.833333
193.202133 6.963235
193.23233 5.335526
193.39679 8.41565
193.857056 20.252529
194.341751 8.382936
194.511154 20.326611
194.66806 38.09079
195.346558 7.704166
195.448685 13.35161
195.974304 5.0
196.622574 7.348333
197.070496 39.880341
197.296234 3.671296
198.076447 42.298309
198.534561 8.355556
199.029922 270.806305
199.087997 61.28278
199.121201 38.572922
199.131989 49.98732
199.909454 5.0
200.042175 16.03261
201.043549 345.465698
201.091125 41.50695
201.110596 11.92747
201.303894 11.4697
201.452087 5.88587
202.051926 54.375
202.074783 297.247009
202.718048 3.686404
203.080109 329.12439
204.080399 554.601685
204.096298 67.685966
204.132172 3.714286
204.990005 42.976189
205.089325 833.839172
207.10112 355.501404
207.411057 9.739865
208.247589 22.775539
208.374863 52.369862
211.082016 100.971298
212.094757 76.606789
212.147171 19.85688
212.766144 33.055401
212.829178 16.05769
212.867493 9.341666
212.971542 68.071053
213.038361 240.258499
213.067993 22.25
213.171906 12.40741
213.358994 5.703947
213.378799 18.8375
213.855606 37.629669
213.871201 36.161739
214.00087 64.576149
214.013504 32.354591
214.041992 24979.650391
214.112213 4.734848
214.229965 21.40221
214.26532 14.13636
214.301056 59.16227
214.331696 17.00765
214.344025 57.20023
214.368164 55.280548
214.392426 48.437969
214.488358 40.39674
214.520172 32.95034
214.545883 17.938641
214.601639 14.86407
214.627121 11.375
214.683197 13.07756
214.701172 36.418171
214.736237 43.32774
214.786209 6.446428
215.059311 27.400761
215.083694 171.176193
215.522995 34.270241
216.025787 32.66927
216.081863 1689.843994
216.291855 10.83
216.337906 13.41346
216.366333 43.60593
216.40715 5.541667
216.604065 15.06136
216.926743 10.08232
216.947281 6.121212
216.984222 57.468891
217.044693 25.53933
217.061462 96.065773
217.08934 3372.053955
217.215286 3.857143
217.449692 9.102273
217.60791 23.56609
217.62796 52.657261
217.644821 5.208333
217.680603 8.023809
217.808945 4.335318
217.87056 6.696428
218.096252 3871.412109
218.168243 45.78933
218.240448 7.001016
218.267563 11.57407
218.456345 8.337501
218.512909 4.382936
218.564346 12.44877
218.643463 11.02083
218.919357 3.695513
218.930954 40.885349
219.104691 2379.271973
219.228317 12.39844
219.2901 14.75
220.100845 2111.633057
220.528595 8.230769
220.567841 18.282049
220.605774 4.345238
220.781494 5.684524
221.120804 9.523809
222.793106 36.520828
222.999985 34.361301
223.680878 6.306159
225.0392 61.05616
225.244476 15.14286
225.390381 6.671053
226.041519 2786.76001
226.357651 9.497093
226.636429 12.56048
226.666519 30.41934
226.692749 15.0
226.708466 8.4375
226.723892 5.875
226.806656 45.380772
226.883636 52.77729
227.008835 21.634411
227.050156 2141.128906
227.432465 7.410257
227.477875 7.075
227.544678 6.25926
227.563126 15.99565
227.680008 99.547867
227.736801 56.806969
227.842453 15.14855
227.879059 55.182171
227.9272 19.707781
227.973999 7.779762
228.007111 72.440964
228.057755 24380.449219
228.124969 3.823718
228.140732 7.031565
228.156494 11.64031
228.211182 12.08088
228.266708 25.43622
228.293137 37.010189
228.325378 12.47619
228.350143 164.428406
228.407974 24.823721
228.450867 84.874603
228.468704 18.920139
228.482712 114.539902
228.551331 12.22715
228.573624 45.3125
228.589905 10.14405
228.624863 27.034901
228.640503 9.214286
228.695587 7.973485
228.769058 102.5951
228.781708 14.1875
228.830093 14.39919
229.027222 159.545303
229.065552 24299.439453
229.128326 25.26832
229.163147 33.869579
229.21199 32.694351
229.245544 12.69207
229.31366 9.826923
229.377243 16.709681
229.403366 70.590721
229.432709 16.85688
229.515839 16.29167
229.575882 58.39484
229.59343 19.70833
229.614288 35.23885
229.646393 97.386803
229.696335 64.652046
229.803955 97.530548
229.825027 22.958891
229.839081 11.44231
229.852249 50.088612
229.927551 82.719681
229.938416 10.54833
229.993408 49.648769
230.071671 1748.092041
230.096527 6283.938965
230.181656 48.63784
230.236877 16.349871
230.338211 28.51232
230.361969 36.840191
230.443802 89.453857
230.462891 6.041667
230.495239 173.419693
230.540863 8.013888
230.589218 46.59795
230.671326 59.318729
230.689346 59.01804
230.719437 37.170021
230.757828 105.601601
230.891891 4.35307
230.977051 11.46296
231.104584 20602.740234
231.291489 24.440861
231.356262 94.805443
231.378418 37.028542
231.391815 64.928108
231.408875 7.541667
231.510803 6.0
231.526703 11.00093
231.547592 16.02043
231.61763 87.896767
231.638046 53.99416
231.653687 9.867857
231.809525 14.10294
231.840393 61.094601
231.909561 41.709518
231.971558 9.960366
232.01857 56.503868
232.054138 70.839897
232.112122 11939.549805
232.157654 22.676979
232.172943 9.0
232.199448 5.748333
232.227646 13.11204
232.280441 8.641026
232.380402 57.560181
232.443329 5.688726
232.479141 13.71429
232.514008 16.72558
232.533539 8.010715
232.653076 89.793411
232.676788 10.04688
232.703186 3.666667
232.798859 13.38087
232.830704 6.05
232.945923 19.180269
233.092545 14.6
233.119553 6861.987793
233.182236 75.938553
233.204178 61.445549
233.216354 27.114201
233.261292 39.683151
233.317337 5.054487
233.481903 62.226051
233.578445 6.678572
233.776398 35.252411
234.109222 78.506943
234.161148 7.523809
234.75209 6.446428
234.804291 4.677083
234.90625 23.29681
235.082855 272.766296
235.553513 9.964506
236.042862 70.547867
237.021774 12.66793
237.044525 195.494797
237.395538 11.48148
238.042786 1782.192017
238.260574 45.68354
239.032349 53.674999
239.047409 2795.068115
239.089035 34.027241
239.697754 13.33696
239.786896 16.004169
239.933533 5.466667
240.183472 9.149692
240.6931 12.66774
240.764801 60.173389
240.866943 7.022059
241.055679 571.318176
241.09433 857.32312
241.153 4.008333
241.333084 16.012011
241.439407 9.710107
241.571365 14.56061
241.700455 54.791672
241.729645 38.882172
241.820251 47.457069
241.847168 54.377159
241.893692 5.801667
241.915344 9.012931
241.981766 62.987331
242.07312 1993.22998
242.096207 2216.864014
242.186554 31.36915
242.267181 9.031566
242.344666 36.730091
242.396042 5.891666
242.500076 7.102273
242.519287 156.007599
242.559677 6.840517
242.572098 38.536591
242.586716 22.002529
242.608444 10.03261
242.646759 16.57445
242.706665 98.109497
242.732529 47.30769
242.780685 60.51424
242.806686 71.678932
242.906784 35.024601
243.10437 21118.400391
243.177551 44.524891
243.258347 15.85
243.335083 11.47704
243.347977 59.274231
243.433411 17.536739
243.468872 27.215481
243.483902 136.791397
243.555191 44.551338
243.570023 21.891199
243.612335 136.302094
243.648438 64.550888
243.665909 43.856941
243.735367 24.724791
243.763626 229.769608
243.862518 4.963235
243.992172 20.392651
244.006088 34.411758
244.054001 208.654205
244.112198 23470.720703
244.197296 24.41927
244.215927 15.5228
244.28743 72.426247
244.318329 12.66964
244.369278 114.561203
244.402344 104.865898
244.432343 19.36915
244.450638 63.77734
244.522552 51.475941
244.58403 91.372276
244.629318 26.63949
244.66391 136.018295
244.70929 92.588547
244.791504 90.930412
244.814041 99.151558
244.846069 8.0
244.932755 62.051739
244.969193 55.56221
245.12001 16792.400391
245.224869 9.84375
245.29985 52.098652
245.343628 43.904598
245.375351 70.46209
245.463593 35.520531
245.480972 39.802269
245.505524 92.051048
245.642365 44.37944
245.676086 11.89352
245.716034 9.541667
245.738861 114.761101
245.863632 42.010151
246.050171 8.347222
246.080093 1297.593018
246.128006 40144.53125
246.196609 55.099998
246.222183 43.253502
246.269089 10.32545
246.323883 44.394001
246.416351 5.341667
246.482544 75.200546
246.537659 16.551069
246.555908 85.601097
246.606049 63.60231
246.64064 58.97699
246.726303 29.988979
246.775055 44.374512
246.860901 52.619411
246.875443 12.34295
246.908005 6.480072
247.003937 58.515629
247.291107 66.117104
247.351669 72.842018
247.400314 4.69697
247.453796 100.158897
247.533325 54.35223
247.549072 51.23999
247.622742 6.833333
247.658875 40.399021
247.77388 70.770172
247.975204 6.001344
248.094879 7407.745117
248.220123 16.85833
248.266708 52.151611
248.306747 5.875
248.324631 35.289791
248.374664 86.201286
248.436234 9.1875
248.506958 7.605556
248.572708 12.02422
248.676102 32.46917
248.735947 52.076469
248.753738 6.840517
248.929672 13.96154
248.957504 23.22963
249.045868 320.5513
249.512924 4.225
249.616791 127.690201
249.79184 6.337963
249.925385 9.053572
250.044449 209.368896
250.352417 30.085711
250.380508 2.347222
250.567108 20.76552
250.631393 61.851551
250.69989 7.335
250.717026 14.12061
251.050583 3602.593994
251.18486 14.29167
251.294937 32.04623
251.31308 4.926282
251.328232 6.678764
251.371002 4.708333
251.438141 16.57445
251.48526 67.090683
251.516098 61.69537
251.537491 10.36364
251.554398 10.66667
251.667221 42.669998
251.706284 116.681198
251.726624 14.9984
251.749023 73.708923
251.762146 12.68056
251.824966 32.87793
251.885605 11.36232
251.92334 14.52932
251.976303 70.47979
252.001541 6.449713
252.024078 85.200233
252.057587 30116.160156
252.126862 34.60677
252.151962 9.840278
252.26593 20.50551
252.309708 117.860397
252.351562 53.52129
252.372101 16.73333
252.388977 25.89361
252.429642 84.718452
252.460632 14.69444
252.530502 84.427063
252.580002 39.334629
252.607254 100.401901
252.649948 22.37681
252.683167 143.560699
252.720398 14.69048
252.75795 18.24242
252.986298 124.565498
253.012726 36.406509
253.03302 209.339203
253.065704 47104.160156
253.130417 18.05192
253.199951 47.684422
253.240082 11.9616
253.273331 9.411822
253.384186 26.45417
253.445663 41.25145
253.513931 66.931252
253.559647 72.922577
253.573212 23.393789
253.594162 6.240079
253.608582 90.128311
253.638092 95.65831
253.664948 22.90456
253.726181 58.821548
253.788483 9.852273
253.821732 12.81649
253.873795 24.59049
254.009445 53.58482
254.158905 24.98197
254.336685 51.30423
254.409744 33.967312
254.548141 66.267601
254.67157 13.92754
254.690536 50.75676
254.705902 24.200001
254.850327 52.123459
254.868759 44.198009
254.943069 38.507721
255.031799 149.329193
255.249542 5.041667
255.420731 21.137739
255.511154 16.242649
255.750336 37.663239
255.898865 11.66667
255.921524 28.44669
256.052887 258.063812
256.112946 3615.199951
256.17746 43.448021
256.216187 6.449713
256.272491 16.366671
256.454407 19.45771
256.502472 58.035061
256.520752 108.712898
256.561554 13.04938
256.60022 63.176041
256.636627 112.543404
256.663391 19.243811
256.677094 104.955399
256.710266 41.084591
256.746185 131.251801
256.756653 223.065399
256.79776 83.438042
256.822388 183.829803
256.85849 75.684677
256.882843 34.03426
256.899658 75.427467
256.990814 9.03592
257.008911 59.755852
257.093689 542.281372
257.120361 7870.632812
257.212646 96.855728
257.243042 46.057869
257.287872 75.170914
257.310608 40.18182
257.325531 8.344048
257.342499 74.337173
257.395172 51.188759
257.437805 133.196396
257.462006 43.501068
257.490204 15.96859
257.523621 239.847504
257.556702 8.013888
257.585663 240.655594
257.617767 58.758511
257.654663 200.851501
257.682312 52.273651
257.700043 336.84021
257.771088 12.50694
257.802948 224.463394
257.840759 415.515991
257.867126 468.723907
257.928406 199.918198
257.963806 192.811096
257.98642 144.365097
258.010986 81.314232
258.12851 94207.5625
258.271667 22.783911
258.384216 63.67247
258.538422 37.067059
258.556427 28.25317
258.633301 118.8218
258.681732 36.77478
258.726898 83.044258
258.764618 119.034698
258.945343 298.61731
259.029968 55.04808
259.059723 69.551178
259.136597 213876.5
259.399719 40.54446
259.486572 66.52359
259.539581 59.461479
259.561676 80.894608
259.597931 38.833328
259.625763 50.005951
259.645264 52.143978
259.666199 74.983932
259.6875 90.412407
259.720825 154.417206
259.744476 23.68918
259.769623 72.797546
259.797119 143.737793
259.820251 158.9328
259.901001 174.286804
259.921234 18.68116
259.959442 113.604401
259.975647 12.34722
260.017212 133.064804
260.06601 83.52903
260.109589 29.828369
260.209686 25.18548
260.280273 85.665497
260.334747 86.968361
260.414581 34.138229
260.445129 73.667221
260.479462 43.22966
260.502411 127.133904
260.567169 61.631161
260.615875 52.358028
260.652222 47.806641
260.667999 43.041672
260.75589 52.289341
261.050018 10.21802
261.18045 78.894234
261.296997 7.025
261.567993 49.46624
261.695251 35.188221
261.798157 18.81909
261.973389 83.360107
262.051117 277.880188
262.085724 5.265351
262.124725 4.083333
262.182251 50.056728
262.271179 13.01894
262.337891 54.60236
262.441162 34.150002
262.507874 3.675
262.710815 5.391026
262.77301 108.186996
262.856873 9.347222
262.878601 7.523551
262.921661 32.412251
263.003021 37.333328
263.067566 67.769547
263.226746 13.00463
263.320984 16.682541
263.378296 38.274239
263.505493 31.08507
263.592712 48.319618
263.801697 25.004629
264.057983 10687.629883
264.111694 4.341667
264.134399 22.23876
264.241516 8.594136
264.263763 8.041667
264.319061 34.44735
264.405334 195.593903
264.429871 44.933159
264.461731 9.001437
264.488464 31.04624
264.498871 95.184303
264.528595 24.02936
264.573364 182.760498
264.591309 40.48127
264.618378 59.375191
264.6362 18.175711
264.669922 460.435486
264.699402 6.333333
264.714935 79.117508
264.733368 10.00082
264.790314 18.35088
264.834778 78.919579
264.879822 39.162628
264.963806 145.420105
264.995544 81.331886
265.016327 77.501633
265.248199 86.557564
265.277039 9.240384
265.329437 185.682098
265.38382 260.354187
265.468079 35.912041
265.493774 444.068115
265.536621 406.867615
265.613617 61.21146
265.63501 620.58667
265.656799 12.19048
265.706512 385.73999
265.736877 546.203979
265.764282 193.240601
265.783356 307.461487
265.837219 37.294121
265.858002 299.074097
265.907379 376.037811
265.923676 59.0196
265.946625 108.635399
265.990082 223.670395
266.0065 129.547897
266.074188 131957.0
266.230591 6.286765
266.276398 25.59868
266.445618 71.49012
266.468658 18.65349
266.55246 88.509064
266.595398 152.956696
266.669281 120.131401
266.830475 63.85915
266.870728 87.033928
267.024902 200.466705
267.038544 31.67053
267.082092 387618.0
267.590942 166.277802
267.668427 198.162094
267.688232 479.289612
267.812775 197.208298
267.841339 32.364899
267.872223 154.280899
267.890442 4.190476
267.978546 190.8741
268.009125 22.044439
268.038818 730.495483
268.144257 24.336109
268.220093 25.20783
268.255157 13.35833
268.280762 18.06942
268.318054 24.1579
268.357422 232.174896
268.39624 104.754501
268.41391 103.960403
268.443298 18.4375
268.461578 73.199501
268.515961 207.7827
268.572083 21.989941
268.590088 101.111
268.61084 16.76066
268.738129 154.504501
268.764465 16.358601
268.788544 112.588303
268.833282 42.719189
268.940521 92.460251
268.984711 110.503601
269.121277 15.10536
269.266296 129.890305
269.315308 11.96014
269.380432 53.60318
269.423767 11.08232
269.499359 117.505798
269.57663 55.99744
269.647095 44.606682
269.680237 30.288389
269.835052 18.66667
269.914368 83.588249
269.97226 10.64015
270.055603 9477.810547
270.102081 385.634888
270.176392 46.322041
270.195404 65.229897
270.284363 64.708923
270.377319 39.834881
270.453125 12.35307
270.481323 47.749241
270.54541 52.006439
270.682465 70.962646
270.701172 78.598969
270.808136 36.19923
270.824768 36.0
270.977539 51.522171
271.029633 21.02939
271.08374 36.86834
271.133606 131.837799
271.609528 9.870833
272.108124 462.276703
272.140472 99.535606
272.352509 41.112701
272.671417 2.761364
272.820404 11.53452
272.99292 34.336311
273.031952 10.57341
273.114075 419.928101
273.135681 248.052399
273.15976 9.380815
273.511719 59.936508
273.858368 8.506945
274.147583 1044.620972
274.224487 19.126459
274.947968 6.875
275.04892 7.010135
275.239349 7.407407
275.328827 3.375
275.643524 8.0
275.834473 25.412359
275.899078 9.711021
275.920837 4.0
276.059601 3796.111084
276.16626 95.193077
276.303375 11.40789
276.381226 6.070402
276.448181 19.11364
276.491333 75.336807
276.709198 6.729167
276.770966 7.520833
276.794159 40.006901
277.121155 12.98465
277.147369 43.47253
277.181396 43.81535
277.216888 13.51894
277.254761 76.704491
277.289001 62.084229
277.321045 3.003788
277.346558 138.150406
277.379822 220.123703
277.400574 10.5
277.418488 8.682971
277.439819 89.286293
277.514862 152.438004
277.548676 85.999207
277.608612 64.628197
277.673065 33.025639
277.705811 148.808594
277.770996 61.731758
277.802368 148.755295
277.86142 35.26305
277.976135 34.285179
278.027069 94.4375
278.073547 17316.779297
278.219757 8.710784
278.288544 29.265409
278.328522 233.046906
278.395966 243.223801
