>compound MLS000876950-01!5,7-dihydroxy-6-methyl-2-phenyl-2,3-dihydrochromen-4-one
>formula C16H14O4
>ionization [M+H]+
>parentmass 271.098358
#inchi InChI=1S/C16H14O4/c1-9-11(17)7-14-15(16(9)19)12(18)8-13(20-14)10-5-3-2-4-6-10/h2-7,13,17,19H,8H2,1H3
#inchikey INBPQAJYHSJVRY
#Ion_Source LC-ESI
#Instrument qTof
#Compound_Source NIH Natural Product Library
#PI Dorrestein
#Data_Collector VVP/LMS
#Scan -1
#Precursor_MZ 271.097
#ExactMass 270.089
#Charge 1
#CAS_Number N/A
#Pubmed_ID N/A
#Smiles Cc1c(O)cc2OC(CC(=O)c2c1O)c3ccccc3
#INCHI_AUX N/A
#Library_Class 1
#SpectrumID CCMSLIB00000080466
#IonMode Positive
#UpdateWorkflowName UPDATE-SINGLE-ANNOTATED-GOLD
#LibraryQualityString Gold
#TaskID b1d8e8f6646f4e71acdff9ca3d919d08
##Scan# 2282
#SpectrumFile p2-D09_GD9_01_18021.mzXML
#LibraryName NIH_Natural_Products_Library.mgf
#MQScore -1
#Organism NIH_Natural_Products_Library
#TIC_Query 0
#RT_Query -1
#MZErrorPPM -1
#SharedPeaks 0
#MassDiff 0
#LibMZ -1
#SpecMZ 271.097
#SpecCharge 0
#internalFilename spec-00000.mgf

>collision 10
94.962402 208.0
95.016716 180.0
95.116058 124.0
95.93853 248.0
96.289749 152.0
96.49688 184.0
96.573151 124.0
96.727722 196.0
97.025482 204.0
97.225555 80.0
97.366905 164.0
97.504425 196.0
97.659752 156.0
98.161942 132.0
98.661469 160.0
98.821663 156.0
98.974075 184.0
99.009712 204.0
99.443901 100.0
99.674263 164.0
100.227425 112.0
100.558464 164.0
101.302284 140.0
101.978493 220.0
102.039864 176.0
102.054543 188.0
102.129288 48.0
102.37281 160.0
102.497704 216.0
102.709381 152.0
102.864754 108.0
102.931381 156.0
102.991966 212.0
103.054626 11748.0
103.132393 80.0
103.234489 144.0
103.307304 52.0
103.465157 92.0
103.495522 52.0
103.586655 136.0
103.685936 92.0
103.706207 68.0
103.791351 120.0
103.817421 84.0
103.833275 220.0
104.058121 604.0
104.134308 224.0
104.422913 76.0
104.601967 148.0
104.683403 120.0
104.974648 204.0
105.03817 176.0
105.069992 300.0
105.264572 252.0
105.62632 180.0
105.710197 64.0
106.136261 168.0
106.249069 176.0
106.927155 180.0
107.046555 176.0
107.081566 144.0
107.167595 84.0
107.902832 192.0
108.051743 180.0
108.21524 172.0
108.296005 116.0
108.461761 168.0
109.032532 184.0
109.063705 36.0
109.257095 196.0
109.784058 196.0
110.059502 148.0
110.303932 92.0
110.385475 168.0
110.818748 168.0
110.940308 156.0
110.965462 244.0
111.042854 284.0
111.980415 232.0
112.009018 188.0
112.047035 228.0
112.089966 128.0
112.429474 56.0
112.637878 68.0
112.69976 176.0
112.906921 184.0
113.650444 164.0
114.05394 132.0
114.160248 160.0
114.421959 184.0
115.012444 196.0
115.055138 124.0
115.694344 72.0
116.812378 188.0
117.036201 100.0
117.069519 364.0
117.417618 60.0
117.96389 160.0
118.546097 164.0
118.773743 136.0
118.854012 156.0
119.155807 260.0
119.636429 216.0
119.976273 144.0
120.059128 152.0
120.648659 204.0
121.030426 532.0
121.89798 152.0
121.999077 188.0
122.210213 196.0
123.009827 228.0
123.045525 48.0
123.80394 112.0
123.96344 336.0
124.209534 84.0
124.622459 164.0
124.811386 204.0
124.860306 140.0
124.898117 100.0
125.022705 144.0
125.162949 80.0
126.059662 112.0
126.332436 140.0
127.053787 160.0
127.541077 156.0
127.687218 116.0
128.020294 176.0
128.065323 132.0
128.324478 140.0
129.072586 244.0
129.356903 148.0
130.03891 180.0
130.32756 152.0
130.423004 52.0
130.684525 224.0
130.743698 36.0
130.882553 164.0
130.973648 260.0
131.04985 4904.0
131.080719 40.0
131.103516 68.0
131.129715 96.0
131.15593 72.0
131.247116 80.0
131.338333 52.0
131.404495 68.0
131.468384 80.0
131.625885 52.0
131.735519 96.0
131.753799 36.0
132.050827 908.0
132.357605 156.0
132.433594 88.0
132.577515 72.0
132.834305 64.0
132.857239 172.0
133.0569 168.0
133.112 120.0
133.157928 56.0
133.581711 76.0
134.364105 40.0
135.249161 48.0
135.619751 76.0
136.539154 164.0
137.026352 148.0
137.058456 704.0
137.340363 232.0
138.033966 240.0
138.058975 168.0
138.342804 180.0
138.499695 80.0
139.039215 168.0
139.135178 168.0
140.040497 144.0
140.887314 140.0
141.071945 188.0
141.126022 20.0
141.256088 184.0
142.078094 140.0
142.32019 52.0
142.550598 64.0
143.934555 160.0
145.02066 124.0
145.064194 124.0
145.258041 236.0
146.351517 144.0
146.809357 124.0
146.956497 168.0
147.043594 84.0
147.077164 176.0
147.376617 100.0
147.52887 152.0
148.650269 116.0
148.725494 144.0
148.827454 160.0
149.022507 196.0
149.126251 204.0
149.170013 164.0
149.33049 92.0
149.461853 156.0
149.620056 164.0
150.026886 160.0
150.87645 168.0
151.042252 320.0
151.721054 48.0
151.78479 168.0
151.946671 216.0
152.047272 204.0
152.06691 176.0
152.949295 136.0
153.01329 216.0
153.059891 156.0
153.432114 192.0
153.538147 40.0
154.074951 144.0
154.170135 176.0
154.293716 160.0
155.041229 60.0
155.085037 184.0
155.237076 168.0
156.175842 116.0
157.279648 136.0
157.919281 144.0
158.044357 112.0
158.187012 160.0
158.630402 128.0
159.923996 132.0
160.500885 88.0
160.826324 188.0
160.856613 84.0
160.962646 68.0
161.667923 156.0
162.029999 164.0
162.547241 64.0
162.679214 136.0
164.581009 28.0
164.867111 188.0
165.017776 1264.0
165.057404 888.0
165.163681 48.0
165.411896 224.0
165.708954 232.0
165.906296 188.0
166.020203 192.0
166.237152 188.0
166.563217 160.0
166.725082 212.0
166.794479 236.0
166.817734 172.0
166.899872 212.0
166.921799 220.0
166.995209 172.0
167.035141 32544.0
167.094681 168.0
167.121078 56.0
167.162247 40.0
167.186661 156.0
167.208572 44.0
167.23317 72.0
167.269485 88.0
167.316498 116.0
167.368164 80.0
167.432556 52.0
167.456116 48.0
167.491592 52.0
167.530426 60.0
167.677292 40.0
167.708221 48.0
167.795868 144.0
167.823273 88.0
167.867035 60.0
167.899017 52.0
167.981552 44.0
168.038101 3012.0
168.113129 72.0
168.21637 60.0
168.252502 88.0
168.375931 40.0
168.583115 48.0
168.717529 68.0
168.735626 96.0
168.77182 64.0
168.802841 60.0
168.826126 84.0
168.89595 40.0
168.919235 80.0
168.968384 108.0
169.04335 248.0
169.107559 92.0
169.315231 76.0
169.346313 80.0
169.372223 188.0
169.493973 136.0
169.527664 100.0
169.61319 76.0
170.189117 52.0
170.350128 76.0
170.589203 72.0
173.062759 848.0
174.064056 212.0
174.973785 68.0
175.372742 64.0
176.028458 60.0
176.06543 148.0
176.163147 68.0
177.693329 172.0
177.90564 72.0
178.075928 400.0
178.184479 148.0
178.609818 116.0
178.814682 176.0
179.030334 220.0
179.081345 308.0
180.044373 416.0
180.647766 52.0
180.802948 56.0
181.066574 312.0
182.070694 172.0
183.079178 176.0
184.088058 120.0
185.093964 224.0
186.053757 108.0
186.743958 72.0
187.067749 216.0
189.027359 48.0
189.057098 212.0
192.005234 104.0
193.050644 448.0
194.062561 160.0
196.128067 160.0
196.906494 128.0
197.058563 132.0
197.092941 140.0
201.086975 356.0
203.036255 120.0
203.146866 32.0
208.086502 156.0
210.084198 152.0
212.819153 144.0
213.089264 136.0
219.069122 208.0
221.005829 204.0
222.903519 48.0
223.810745 56.0
224.087738 112.0
225.086945 176.0
225.13472 140.0
228.079514 192.0
229.096771 168.0
233.993988 116.0
237.057587 116.0
237.152588 200.0
243.101791 92.0
253.085205 504.0
254.087418 108.0
257.119843 128.0
269.089691 172.0
270.727875 180.0
271.098358 2096.0
271.173431 72.0
271.199646 76.0
271.586548 68.0
271.635742 88.0
272.013092 72.0
272.10672 356.0
272.3349 56.0
272.377594 44.0
272.459717 48.0
273.163208 48.0
319.884521 140.0
336.147369 72.0
405.619446 72.0
414.881012 20.0
545.361877 44.0
597.380066 100.0
620.813843 44.0
632.30188 104.0
655.807922 48.0
662.127869 92.0
725.261414 148.0
773.60498 172.0
842.174744 136.0
872.206116 176.0
880.531311 208.0
910.680298 128.0
922.42981 188.0
925.642334 132.0
928.253967 120.0
935.289124 196.0
953.828796 176.0
963.534424 180.0
977.540894 68.0
978.28772 144.0
978.468262 96.0
992.921082 208.0
996.341919 176.0
999.630188 196.0
1003.59845 200.0
1003.806519 192.0
1008.307495 152.0
1020.503479 176.0
1028.313232 176.0
1036.838257 204.0
1037.703613 216.0
1044.697144 116.0
1046.293091 116.0
1072.802246 160.0
1078.350342 208.0
1081.470093 48.0
1091.934692 44.0
1094.106079 128.0
1098.158447 184.0
1103.639404 52.0
1107.464355 156.0
1109.757202 256.0
1110.36731 180.0
1116.038208 172.0
1119.797974 164.0
1121.670166 176.0
1125.265747 240.0
1125.813354 228.0
1128.39917 96.0
1132.695312 176.0
1138.140869 152.0
1141.124023 144.0
1141.298828 72.0
1142.078979 148.0
1145.10083 164.0
1159.314819 176.0
1163.010986 176.0
1165.686768 208.0
1168.923462 160.0
1170.414185 136.0
1176.427246 128.0
1183.441528 164.0
1187.025024 136.0
1192.730103 140.0
1195.783936 68.0
1202.08252 144.0
1205.514526 184.0
1206.24707 208.0
1208.377075 160.0
1209.851074 132.0
1210.044922 132.0
1215.506592 144.0
1216.887817 188.0
1217.818359 192.0
1220.361694 220.0
1222.337036 120.0
1232.370483 200.0
1244.957642 172.0
1250.804077 236.0
1258.244141 132.0
1262.575439 224.0
1264.764404 52.0
1265.774048 148.0
1268.203857 148.0
1269.487061 172.0
1269.940918 148.0
1272.197388 132.0
1272.722778 128.0
1273.049316 144.0
1280.879761 164.0
1291.429077 248.0
1293.232056 196.0
1297.866943 96.0
1314.251587 184.0
1315.666138 140.0
1321.404297 184.0
1322.120728 144.0
1323.401855 132.0
1323.503296 172.0
1324.097046 156.0
1325.408203 140.0
1329.606812 184.0
1338.650024 160.0
1342.818481 144.0
1344.665283 204.0
1354.615356 136.0
1357.055664 164.0
1359.204712 196.0
1366.06665 152.0
1368.539307 152.0
1370.734253 172.0
1371.928223 88.0
1375.969971 160.0
1376.87915 152.0
1381.898193 216.0
1389.499512 200.0
1390.085571 36.0
1396.043091 136.0
1397.657227 156.0
1399.547852 152.0
1403.0271 188.0
1407.41394 116.0
1409.340942 192.0
1409.594971 160.0
1410.461914 160.0
1415.526733 152.0
1415.96106 176.0
1418.815796 172.0
1420.00061 176.0
1420.810669 140.0
1422.266357 156.0
1423.279907 160.0
1424.18103 168.0
1425.165161 128.0
1426.953857 192.0
1429.782104 140.0
1433.147949 108.0
1433.366455 44.0
1437.543945 60.0
1438.170288 224.0
1441.931519 156.0
1446.619995 160.0
1448.55188 208.0
1453.130615 152.0
1457.070923 176.0
1457.146851 144.0
1460.582886 204.0
1460.902344 144.0
1461.419678 208.0
1464.19043 92.0
1464.990112 224.0
1467.078125 144.0
1469.114258 212.0
1469.70166 124.0
1473.259277 32.0
1473.312744 148.0
1479.736816 80.0
1481.161133 92.0
1482.471191 112.0
1483.237549 168.0
1483.613159 116.0
1487.924561 164.0
1492.157715 120.0
1494.634277 152.0
1494.865112 204.0
1495.611572 168.0
1498.576294 196.0
1503.017456 72.0
