>compound cyclo(L-Leu-L-Pro)
>formula C11H18N2O2 
>ionization [M+H]+
>parentmass 211.143723
#inchi InChI=1S/C11H18N2O2/c1-7(2)6-8-11(15)13-5-3-4-9(13)10(14)12-8/h7-9H,3-6H2,1-2H3,(H,12,14)
#inchikey SZJNCZMRZAUNQT
#Ion_Source DI-ESI
#Instrument qTof
#Compound_Source Isolated
#PI Keyzers
#Data_Collector R Keyzers
#Scan -1
#Precursor_MZ 211.145
#ExactMass 210.137
#Charge 1
#CAS_Number 2873-36-1
#Pubmed_ID N/A
#Smiles N/A
#INCHI_AUX N/A
#Library_Class 3
#SpectrumID CCMSLIB00000007049
#IonMode Positive
#UpdateWorkflowName UPDATE-SINGLE-ANNOTATED-BRONZE
#LibraryQualityString Bronze
#TaskID 76b66bf1ccd04cec9993212b36387ea3
##Scan# 4
#SpectrumFile CDB02_35I_pos_MSMS_003_2.mgf
#LibraryName gnps_library.mgf
#MQScore -1
#Organism test_rob_keyzers
#TIC_Query 0
#RT_Query -1
#MZErrorPPM -1
#SharedPeaks 0
#MassDiff 0
#LibMZ -1
#SpecMZ 211.145
#SpecCharge 0
#internalFilename spec-00000.mgf

>collision 10
28.351522 24.04891
28.511232 16.0
28.5179 15.125
31.450043 24.0
32.179127 18.44643
36.866718 22.360291
37.749111 26.066179
42.46072 14.08654
43.018005 207.088898
43.056122 196.001801
43.271507 26.0
44.051952 53.015629
44.420258 15.47115
45.032997 515.451782
45.683907 12.14286
46.246315 18.05921
47.397434 25.05921
47.942608 29.164471
57.285576 21.778851
58.027985 298.018707
59.052059 171.125
67.048668 125.840302
68.352837 23.57143
68.855232 38.01667
69.42247 29.777781
69.78923 20.28409
70.065384 10948.650391
70.141739 182.440094
70.161453 42.097221
70.200981 18.200001
70.224503 18.5
70.341949 55.894741
70.529373 55.778221
70.622391 25.778851
70.683365 16.01136
70.764999 38.291672
70.942062 18.375
71.049454 146.130905
71.068352 291.048492
71.212646 19.01136
71.472733 15.75
71.799377 18.125
72.046364 1434.110962
72.1241 19.01136
72.354439 25.02083
72.37487 22.694441
73.244431 26.066179
73.412498 19.9
73.722504 12.125
74.016472 17.01786
74.433693 33.408329
79.352287 15.08333
81.068672 29.0625
81.713936 59.034088
83.055191 91.050003
83.478951 17.674999
84.029572 171.600006
84.115891 13.36029
85.03228 47.005001
85.101349 66.010872
85.871071 14.125
86.097252 1841.089966
86.183495 87.026314
86.269295 13.01136
87.045555 68.720589
87.095039 339.378906
87.718452 30.408331
88.221909 14.125
89.059891 1275.498047
89.149536 15.5
89.389771 27.05921
89.656425 20.008329
89.947624 17.347219
92.832146 63.273651
93.065063 151.012604
93.95919 18.16346
94.064667 224.777893
95.085098 196.4198
97.059433 20.008329
97.52861 29.111111
98.059372 925.532593
98.149132 15.375
98.50695 27.148809
98.994537 14.44643
99.03994 71.421509
104.164009 31.48077
105.074425 134.017303
107.065903 79.25
107.096581 20.225
108.051651 92.094231
108.530754 19.200001
109.102058 60.315788
110.062141 282.571198
112.026817 22.11364
113.071434 44.43214
114.093437 1268.17395
114.189819 20.78125
114.219078 23.02273
114.409019 24.28125
115.09597 46.285709
115.540421 37.01667
115.687531 19.375
116.859863 16.0
117.095634 88.0
118.851776 17.035721
119.054497 76.333344
119.084862 167.232697
119.431488 12.25
120.38295 27.2663
123.053078 29.91848
124.096939 31.360291
125.060143 143.25
125.111107 77.061272
125.647438 19.025
126.056892 104.461502
127.085716 477.560211
128.948837 194.060593
130.087677 18.674999
131.226059 30.674999
133.083771 420.69809
133.143127 14.0625
133.601639 23.01136
134.052155 19.33333
134.296173 19.78125
135.072632 74.816856
135.101562 175.880493
137.086426 17.20833
138.127045 1610.511963
138.23497 20.07692
138.259628 12.33333
138.318665 15.55682
138.997635 17.347219
139.129776 223.125
139.253174 17.20833
140.746979 32.23077
143.571869 13.125
143.611801 27.674999
145.23761 15.57143
146.478271 19.375
146.918503 40.041672
146.957108 13.375
148.111084 54.025002
149.06517 71.10714
151.060165 102.721199
152.045486 27.799999
152.540848 60.065788
152.859482 56.013889
153.082886 152.980301
154.072784 503.063293
154.11792 102.890602
154.5634 31.027781
154.816895 12.00833
155.077881 47.90086
155.149277 599.816895
155.696167 13.75
156.08168 27.04167
157.527496 77.385643
159.070953 13.75
163.080048 45.160709
165.084229 120.040604
165.138 56.605
166.123306 105.010399
166.742615 12.0
167.120773 48.5
167.156845 135.347794
167.203857 12.10227
169.103668 176.938904
170.05397 58.005951
171.279236 17.674999
172.054886 26.92045
172.089386 14.0625
173.103607 100.086502
175.090256 117.673599
177.086441 58.375
177.110138 40.32143
177.293365 21.66667
178.363739 15.06618
183.147522 1988.655029
183.275055 20.013889
183.442322 22.75
183.478897 16.471149
183.96373 23.57143
184.088165 17.200001
184.151047 241.204193
184.626831 25.111111
185.150681 19.035721
188.389847 21.654409
189.117447 34.889709
191.898468 13.2
194.116302 105.920898
195.088425 193.720001
195.114807 139.569
201.928406 12.05
206.122635 23.408331
209.13446 51.796051
210.132828 179.440094
211.089417 92.421509
211.143723 11629.200195
211.27301 125.0
211.309265 64.044998
211.476501 27.0
211.551331 67.01136
211.590775 26.44643
211.665482 51.41346
211.812515 30.066179
211.872314 34.595589
211.926788 31.160721
212.045898 107.198502
212.143219 1262.958984
212.423141 17.408331
212.49939 22.009609
212.65712 47.53289
212.743256 15.03571
213.116882 15.75
213.183746 17.285721
214.393311 13.00961
219.408493 23.10227
220.090317 15.03571
224.938995 17.25
226.044937 20.03125
232.123947 28.6
238.076721 14.16346
239.403503 43.96196
251.811432 24.008329
254.142761 21.799999
258.956665 38.560181
260.419373 14.34722
264.528564 14.01389
275.278351 12.04167
275.318573 12.66667
280.14151 33.89286
281.386963 23.89286
283.976379 20.148809
284.190613 21.125
287.671234 59.462841
289.940979 28.28409
301.88089 14.34722
305.019348 20.111111
318.727051 20.625
321.906769 14.0
327.864075 21.01136
332.902954 14.44444
335.420776 13.375
338.287598 17.25
338.90387 24.90132
347.987183 19.125
358.857635 18.25
363.463745 28.164471
367.221497 21.694441
370.437988 18.04167
372.491699 54.07692
372.954895 27.285721
374.466125 15.77885
392.396667 15.00961
394.318634 13.66667
398.328644 32.035709
407.102234 12.0625
409.94696 57.160709
423.097382 29.25
424.497406 25.075001
426.963623 34.083328
430.942657 26.111111
434.707794 34.44643
437.380615 18.125
441.989502 12.125
448.169739 21.53125
455.136475 14.0
461.96405 35.004631
473.951904 14.01389
494.25415 15.00961
507.754089 31.025
510.49054 22.53125
522.811462 16.5625
528.825317 33.148811
532.350525 22.66667
532.789917 14.68056
569.164734 32.14286
575.484558 12.25
580.215454 24.654409
598.081482 22.78125
610.609985 23.0
611.993774 17.625
613.814392 31.25
632.848938 17.408331
639.791077 14.47115
650.895386 13.01136
652.990112 18.680559
658.560486 27.007351
685.869385 13.04167
686.660278 23.164471
686.860779 77.714287
692.02948 14.24039
702.516235 41.25
706.499451 35.01923
718.802063 17.14286
731.972656 40.0
737.302368 39.92308
739.780212 13.33333
757.443054 13.16346
771.689087 25.32143
776.974854 47.520828
777.70343 12.2
781.743164 13.40833
805.303467 15.04167
810.591003 29.007351
817.702942 41.799999
829.72876 22.111111
863.79718 12.92045
892.514893 13.5
897.303955 32.008339
907.393616 20.075001
913.165161 12.04167
926.660828 45.242649
964.877625 15.01136
966.327454 20.066179
