>compound Aztreonam
>formula C13H17N5O8S2 
>ionization [M+H]+
>parentmass 436.06
#inchi InChI=1S/C13H17N5O8S2/c1-5-7(10(20)18(5)28(23,24)25)16-9(19)8(6-4-27-12(14)15-6)17-26-13(2,3)11(21)22/h4-5,7H,1-3H3,(H2,14,15)(H,16,19)(H,21,22)(H,23,24,25)/b17-8-/t5-,7-/m0/s1
#inchikey WZPBZJONDBGPKJ
#Ion_Source LC-ESI
#Instrument qTof
#Compound_Source Isolated
#PI Sirenas
#Data_Collector Ed Esquenazi 
#Scan -1
#Precursor_MZ 436.06
#ExactMass 0.0
#Charge 1
#CAS_Number N/A
#Pubmed_ID N/A
#Smiles N/A
#INCHI_AUX N/A
#Library_Class 3
#SpectrumID CCMSLIB00000005429
#IonMode Positive
#UpdateWorkflowName UPDATE-SINGLE-ANNOTATED-BRONZE
#LibraryQualityString Bronze
#TaskID d19310cd93df49b68e9fcbec27720eb5
##Scan# 2
#SpectrumFile Aztreonam.mgf
#LibraryName fda_library.mgf
#MQScore -1
#Organism fda_library
#TIC_Query 0
#RT_Query -1
#MZErrorPPM -1
#SharedPeaks 0
#MassDiff 0
#LibMZ -1
#SpecMZ 436.06
#SpecCharge 0
#internalFilename spec-00000.mgf

>collision 10
100.004677 14.8109
100.009995 101.484398
101.017006 70.704483
106.039742 35.64188
112.171745 4.080128
113.513092 42.05769
121.051201 35.72332
124.051147 21.66773
124.132591 6.016304
124.447098 9.960366
125.003288 87.070602
125.166748 7.935
126.011818 1418.437012
126.057983 4.733333
126.066513 4.714286
126.08596 5.121212
126.164108 2.4
126.273537 10.70833
126.404022 22.68553
126.422127 5.342593
126.512123 7.030303
126.641273 6.686274
127.019356 646.526123
127.064621 3.008333
127.115135 12.36111
127.649078 8.013888
128.062393 2.708333
128.273163 3.208333
128.534851 5.708333
138.0103 148.753998
138.016647 25.61343
138.093719 12.04537
138.268219 7.080883
138.341705 5.111111
138.994553 93.512329
139.420349 7.666667
140.025925 76.793388
142.006058 359.920685
142.041718 18.690479
142.101639 9.25641
142.385986 5.469444
149.068451 41.6884
152.151917 11.13038
153.0215 370.479797
154.108795 10.68314
154.205307 8.775641
154.224777 11.02222
154.904434 3.760417
155.034225 159.3526
155.242386 4.380952
155.441803 10.64015
155.511383 13.51389
156.019608 123.441902
156.063538 60.706161
164.026962 9.001985
165.016907 95.042351
165.228165 18.373461
165.456894 7.005952
166.030533 448.10849
166.0578 5.347222
166.066528 3.008333
166.097549 18.6681
166.227386 10.02564
166.238968 9.136111
167.125732 9.03125
167.143723 7.843137
167.643356 6.880952
167.656845 5.371913
168.098373 4.469445
170.911255 5.801667
171.03421 488.081909
171.176453 3.041667
171.200958 13.25
171.234924 11.3344
171.261642 22.676781
171.279846 9.694819
171.388992 8.160256
171.40741 8.227151
171.439255 6.880952
171.493301 2.4
171.557693 4.340278
179.032761 29.923611
180.059616 32.821239
180.904602 13.3375
180.965195 17.441441
181.018768 1704.772949
181.110229 14.06076
181.171082 3.335526
181.236649 9.375
181.3116 8.523648
181.634964 5.019737
181.925781 19.029591
181.959976 9.057971
181.980118 14.45614
181.995255 3.816667
182.061691 20.3869
182.082794 4.893518
182.14151 22.508329
182.216812 10.09
182.286407 17.6348
182.334244 3.010417
182.382553 21.47949
182.541 12.0
182.645981 4.075
182.658478 1.694445
182.710495 20.549379
182.745712 2.016667
182.776291 3.490385
182.818436 10.6796
183.032715 2815.438965
183.101425 2.337963
183.234787 10.33333
183.251404 3.680556
183.277405 5.208333
183.349609 6.598684
183.379532 10.7815
183.392822 4.382936
183.463394 11.4697
183.477524 6.337963
183.505798 9.679598
183.547913 4.833333
183.571823 18.844299
183.604828 9.240384
183.647202 7.053572
183.885498 14.12927
184.128403 3.355392
184.558228 14.06136
185.016876 14.72727
185.831787 15.72202
190.999023 52.8172
191.034332 51.078209
194.044296 9.666667
196.047684 50.97578
197.883636 19.08013
198.866653 9.735544
198.91571 10.40351
199.027527 959.560486
199.288788 11.68561
199.333771 1.777778
199.38974 11.34167
199.578979 10.45833
199.70076 1.777778
199.728577 5.916667
200.046829 162.347504
200.104874 12.37634
200.154083 8.035714
200.469513 32.180061
201.013641 8.125
204.961563 13.00167
205.925262 5.041667
206.868637 4.763889
207.675018 12.37677
207.814056 8.229167
207.87558 32.216671
207.975098 8.639493
208.00589 6.25
208.028152 22.373369
208.307175 5.010417
208.658798 10.66768
208.719116 4.668651
208.790909 13.9375
208.804779 4.531863
208.907089 28.01667
208.924683 4.041667
208.966583 11.48761
209.012482 3972.962891
209.048004 1047.079956
209.093338 7.704166
209.112762 49.556591
209.131622 11.73016
209.151566 8.136261
209.163086 46.421822
209.194992 14.50262
209.222015 13.32065
209.248352 11.82738
209.276337 25.046671
209.288788 18.33333
209.30101 4.6
209.327698 12.35299
209.344391 18.11846
209.358017 19.662979
209.396057 21.49218
209.421539 35.00111
209.438507 8.708333
209.453552 10.09058
209.46637 47.37429
209.478241 12.88195
209.498856 33.17197
209.579437 7.023809
209.589935 34.4678
209.670105 9.336538
209.685211 10.75347
209.713974 22.77783
209.873108 32.650002
209.933334 54.92511
210.020554 13442.549805
210.082947 187.564301
210.103455 66.057716
210.130371 8.805555
210.14389 6.341667
210.178177 26.729071
210.194321 20.373039
210.214478 92.564247
210.239578 25.375
210.252106 9.369445
210.282852 51.997139
210.313065 54.27549
210.360031 37.61623
210.405167 19.14797
210.476868 11.67857
210.522263 19.53289
210.537521 20.94516
210.570389 21.447929
210.656708 37.92754
210.731369 23.578279
210.805267 4.531863
210.888504 27.01782
210.951553 9.075
211.064743 48.70134
211.129654 13.14881
211.163834 8.335
211.269287 5.020833
211.337814 29.49485
211.509521 19.22669
212.216934 3.490385
212.42955 19.00395
212.875778 29.46069
213.231873 12.30682
214.057434 64.871803
215.545425 2.893518
215.643539 2.14881
223.06282 133.438995
223.520309 4.875
224.057632 216.890106
224.121353 3.722222
224.256882 6.070402
224.94986 8.047619
225.665802 6.34375
225.781097 11.93895
225.819305 10.53305
225.901016 15.34248
226.634048 5.633333
227.022232 2353.823975
227.088821 11.06818
227.133987 6.458333
227.212646 5.833333
227.283432 2.666667
227.309662 7.407407
227.341125 4.708333
227.367279 15.89943
227.398972 12.42976
227.495102 25.112101
227.603546 2.733333
227.68222 6.057692
227.771469 4.120098
227.808441 12.55408
228.045547 31.95476
228.596802 8.388441
229.039658 77.020523
235.880722 12.64031
237.752274 15.8
239.057388 27.32655
251.055267 33.60759
252.052628 73.066673
252.132324 2.367424
252.25386 6.380208
253.034241 111.308098
253.974228 12.63158
256.038483 35.280769
267.381531 11.5873
267.489563 6.013889
267.566376 2.541667
267.615082 6.8
267.909637 11.92647
267.945099 2.722222
268.056061 43.751171
268.167084 7.736842
269.070251 1946.982056
269.136627 12.60379
269.2677 8.334259
269.319 3.700758
269.455109 6.231482
269.52652 20.7451
269.540924 12.04167
270.035248 37.974361
270.06546 1498.155029
270.103149 23.66667
270.142273 19.028891
270.195984 15.33929
270.319122 2.670455
270.443359 2.854167
270.806427 32.17094
270.925964 25.537201
271.746185 9.259408
272.032043 4.340909
275.917145 5.782407
283.330078 9.679598
283.464081 32.185181
283.634674 20.69318
284.361633 6.007576
284.873291 37.986851
285.007935 36.122601
285.027374 34.44492
285.065979 1219.073975
285.132812 1.75
285.154144 9.820378
285.238098 8.224999
285.312866 9.32545
285.414459 5.816667
285.558777 4.857143
285.583313 13.73667
285.779022 10.17339
285.802124 9.711021
286.654144 12.33333
287.460114 2.408333
308.372467 6.703703
309.356964 8.333333
309.552795 2.333333
310.09491 59.471161
310.28772 11.11725
310.50943 37.35244
311.064209 81.002457
311.113617 66.928917
311.170776 9.03858
311.1922 71.788002
311.241364 26.488211
311.262238 29.785761
311.281525 16.558571
311.304047 48.91589
311.347198 133.037796
311.38559 4.041667
311.411102 31.861601
311.450134 39.163792
311.477173 6.541667
311.541199 24.36825
311.608887 17.453621
311.67804 16.157431
311.824677 23.082689
311.958496 71.980347
311.999908 10.20119
312.43631 11.36232
312.473511 36.429409
312.572388 13.70833
312.648102 12.89302
312.730469 1.680555
312.769043 10.93889
312.795868 14.79594
312.860779 13.62307
313.014282 22.01515
313.060181 28732.109375
313.134552 81.732933
313.157623 19.56333
313.217712 22.66667
313.247925 125.966797
313.281036 43.720428
313.298828 121.573303
313.322662 95.348183
313.387726 99.107162
313.411224 111.014397
313.442535 60.794479
313.497437 124.2621
313.555908 49.566311
313.57782 17.68078
313.599884 23.22917
313.628082 46.172981
313.665222 38.418201
313.69986 23.59889
313.733185 104.652496
313.846771 51.607189
313.926147 29.70241
314.176636 43.040131
314.303955 8.339286
314.462616 13.95376
314.530823 6.88587
314.559296 24.11846
314.783508 14.35363
314.984253 3.125
315.012238 9.769231
315.098663 30.320379
315.116882 5.0625
315.217255 4.453432
315.485779 8.446428
315.836761 10.29167
315.895508 3.342592
316.056274 10.72803
316.39035 4.66886
316.719696 6.408333
316.836029 14.69345
316.99707 2.669444
317.207703 10.88889
318.249481 11.6901
318.567108 3.416667
318.920532 17.930559
319.16864 5.415
320.001862 2.083333
320.14035 11.48761
321.0672 6.201666
322.290009 10.55136
328.10202 36.125
341.039459 11.30769
354.54892 2.027778
356.101105 719.393921
356.278931 5.694445
356.464417 7.724359
356.51004 3.688725
356.547119 1.666667
356.663696 1.875
356.780365 10.29643
356.868622 8.46558
357.015411 10.06818
357.05545 9.044118
1133.963989 58.471119
