>compound Methylprednisolone
>formula C22H30O5 
>ionization [M+H]+
>parentmass 375.217
#inchi InChI=1S/C22H30O5/c1-12-8-14-15-5-7-22(27,18(26)11-23)21(15,3)10-17(25)19(14)20(2)6-4-13(24)9-16(12)20/h4,6,9,12,14-15,17,19,23,25,27H,5,7-8,10-11H2,1-3H3/t12-,14-,15-,17-,19+,20-,21-,22-/m0/s1
#inchikey VHRSUDSXCMQTMA
#Ion_Source LC-ESI
#Instrument qTof
#Compound_Source Isolated
#PI Sirenas
#Data_Collector Ed Esquenazi 
#Scan -1
#Precursor_MZ 375.217
#ExactMass 0.0
#Charge 1
#CAS_Number N/A
#Pubmed_ID N/A
#Smiles N/A
#INCHI_AUX N/A
#Library_Class 3
#SpectrumID CCMSLIB00000004249
#IonMode Positive
#UpdateWorkflowName UPDATE-SINGLE-ANNOTATED-BRONZE
#LibraryQualityString Bronze
#TaskID d19310cd93df49b68e9fcbec27720eb5
##Scan# 2
#SpectrumFile Methylprednisolone.mgf
#LibraryName fda_library.mgf
#MQScore -1
#Organism fda_library
#TIC_Query 0
#RT_Query -1
#MZErrorPPM -1
#SharedPeaks 0
#MassDiff 0
#LibMZ -1
#SpecMZ 375.217
#SpecCharge 0
#internalFilename spec-00000.mgf

>collision 10
101.059013 237.344696
101.128067 12.21894
101.241089 6.002778
101.415146 7.162634
102.941322 3.686404
103.037338 39.28994
104.059631 70.070312
105.070251 250.512802
106.364876 3.686404
106.633217 4.852273
106.803047 10.0
106.840599 4.120098
107.047005 11.0819
107.085388 798.778625
107.13047 4.694444
107.166481 2.670455
107.469208 11.54667
108.572655 30.31296
109.066086 153.305695
109.101212 746.016602
109.143303 14.14983
109.880943 5.041667
110.593727 1.777778
111.042625 98.168404
111.080574 144.009003
111.730209 9.280702
112.463585 7.306159
113.058182 30.799021
115.034607 13.28656
115.040672 55.59837
115.053246 102.663399
115.074959 33.598679
117.054016 175.507904
117.066132 115.900703
117.098595 4.483333
119.08522 256.406097
119.122215 2.669872
119.171577 7.0
119.255165 30.409719
119.391975 8.601191
119.437584 3.025
120.055023 8.041667
120.090874 88.210213
120.385841 7.494048
120.676414 19.01701
121.064545 1662.630981
121.101418 211.178894
121.111992 8.375
121.18515 13.05833
121.208191 25.33737
121.223763 22.32065
121.265137 4.75
121.285767 16.5977
121.422852 26.403049
121.441956 8.350877
121.453491 13.04012
122.410606 15.22685
123.045357 196.174103
123.079536 407.690491
123.115623 76.333641
123.219612 7.763095
123.408905 5.041667
124.477867 4.083333
124.629295 27.23934
124.843719 26.324329
125.059662 255.653793
125.097504 88.467468
125.212578 7.049603
125.380623 35.54808
125.867393 4.028846
126.539581 7.757883
127.077133 33.927078
128.220062 6.682971
129.06926 130.641998
129.08551 39.835651
129.119522 2.386905
130.873032 7.605556
131.04715 70.373039
131.085709 535.177002
131.331253 9.429762
131.494568 5.673611
133.060867 15.62888
133.068497 76.65834
133.099457 602.51123
133.14888 11.735
133.176025 14.44792
133.267365 10.38294
133.291489 11.56048
133.332016 11.34295
133.364151 8.380815
134.217224 3.695513
134.350189 9.472222
134.360611 32.159458
134.385284 6.826754
134.406723 6.378623
134.510925 23.84815
134.527756 21.177231
134.539856 4.363636
134.596085 8.65661
134.632675 5.76923
134.657883 19.555559
134.689133 1.666667
134.902557 16.907049
135.044922 66.669617
135.080353 5956.924805
135.129501 12.54167
135.145493 33.440479
135.161713 14.86111
135.174545 17.667431
135.194214 13.07843
135.201447 22.252529
135.226517 16.33889
135.248322 16.36488
135.255417 8.45
135.280457 11.30029
135.288834 8.518939
135.307632 5.001812
135.315735 8.400001
135.340012 8.802928
135.380981 10.2608
135.406799 9.208333
135.429352 36.163422
135.445267 11.01136
135.469574 18.43803
135.49791 9.960366
135.563828 2.893518
135.589066 24.970449
135.63562 8.704166
136.110352 19.51111
136.175797 7.633333
136.239975 3.703704
136.357758 3.736111
136.740021 3.041667
136.933197 18.29167
137.059036 89.047493
137.330399 3.0
137.363464 8.41523
137.758804 11.03947
138.560272 6.081667
138.704712 8.416667
138.720016 4.349638
139.074539 391.759888
139.360229 23.25362
139.635254 15.44676
140.297928 11.04688
142.078873 19.097219
142.876968 25.00798
143.084442 301.517212
143.126083 13.3869
143.23465 18.36585
143.253387 8.125
143.334579 12.27
143.439194 25.36939
144.473755 5.09375
145.06308 531.168518
145.100952 483.251099
145.13269 23.16667
145.152069 6.826923
145.181549 4.166667
145.248444 26.008129
145.353348 18.02347
145.405945 14.13225
145.422653 19.58824
145.458725 11.66667
145.473022 2.111111
145.621948 11.04545
145.655563 21.09145
145.706207 6.673611
145.777283 9.477381
146.218643 16.473261
146.736237 4.773809
147.079575 1183.76001
147.115982 168.381607
147.141418 2.708333
147.173019 9.922933
147.185989 8.300439
147.250671 12.34405
147.310211 11.02315
147.343964 35.669769
147.382492 4.59375
147.436661 3.354167
147.56366 7.102273
147.597717 7.347222
147.671448 8.416667
148.088715 59.885189
148.331055 39.05378
149.095795 1014.987976
149.148148 11.8524
149.258423 14.7002
149.288651 7.339285
150.35321 6.013889
151.072098 112.971298
151.110931 120.857697
151.169785 1.680555
151.186584 17.72003
151.289536 1.777778
151.53717 6.880952
151.725632 7.6875
152.059998 43.3447
153.091431 119.634903
153.177475 2.375
153.35466 4.963235
153.496292 15.67465
154.07402 51.451851
154.134827 4.734848
155.07019 78.494049
155.083817 16.613741
155.17366 11.16026
155.423889 4.041667
155.715317 2.005952
156.624069 13.73333
156.658875 13.75321
157.100449 224.071503
157.137985 4.773809
157.273346 3.727941
157.452271 7.416667
158.073502 95.20533
158.22998 8.146739
158.36525 1.777778
158.379074 7.350877
158.713547 6.037281
159.079224 1046.543945
159.117493 170.565399
159.142151 6.339285
159.184341 22.40933
159.317688 3.560185
159.339325 9.713542
159.412476 1.6875
159.432587 20.32658
159.450958 27.776899
159.568283 4.341667
160.019073 5.054487
160.136292 10.45581
160.157303 14.73409
160.196808 3.677083
160.253418 4.120098
160.271667 3.375
160.289291 6.710784
160.31572 2.016667
160.333389 19.93804
160.346542 7.388514
160.364166 5.672222
160.399399 71.181236
160.465607 7.969086
160.523346 7.779321
160.548538 3.680556
160.619766 18.063129
160.647125 13.41682
160.778549 9.357558
160.862381 6.671297
160.932571 12.47798
161.045456 33.570339
161.056747 24.44363
161.095932 8850.797852
161.133072 154.8349
161.14975 67.494278
161.184631 11.71264
161.215622 3.440476
161.22464 32.949581
161.246765 7.345238
161.25531 15.66927
161.272675 16.25
161.28624 28.43438
161.304794 11.81855
161.353256 37.75169
161.41806 19.66247
161.452805 31.002649
161.471664 19.77844
161.480698 7.698232
161.511642 13.0
161.533752 8.816667
161.54216 46.107521
161.563171 14.61374
161.582397 15.17452
161.677826 8.049603
161.695633 11.12037
161.710663 3.047619
161.737198 1.672619
161.807816 8.35307
161.864838 20.259609
162.252579 5.680555
162.285095 25.5376
162.330612 3.727941
162.423706 8.009147
162.675201 16.68889
162.751968 9.960366
162.822693 4.833333
163.069016 37.706902
163.145599 12.96323
163.404663 5.19853
164.322968 3.185606
164.639526 26.844419
164.746445 4.166667
164.878952 3.226852
164.91655 12.03333
165.089798 969.930298
165.326584 23.52153
165.439178 3.686404
165.501831 5.742284
165.546814 23.45509
165.560135 14.01961
165.755005 12.38294
167.106079 49.542858
167.135727 5.0
167.49942 4.0
167.53093 8.668103
168.166138 2.386905
168.81218 4.44079
169.083725 38.410629
169.093704 87.099152
169.115891 51.59568
169.242523 2.337121
170.071045 18.41667
170.183197 11.48167
170.384277 15.33412
171.079285 330.699005
171.11644 356.952087
171.170792 1.6875
171.182175 4.75
171.790863 11.0496
172.02298 21.69381
172.045807 6.520061
172.126785 36.80278
172.178192 10.00181
172.241287 6.833333
172.328568 14.80421
172.365326 13.43254
172.383636 8.372808
172.736069 19.813061
173.094772 1505.109985
173.131012 340.356293
173.2686 9.875
173.284042 3.185606
173.323547 7.041667
173.416321 22.37137
173.472443 8.667636
173.600754 8.334401
173.95874 9.796296
174.261475 16.452681
174.357895 3.355392
174.541687 4.71627
174.648315 7.231482
175.001633 13.37281
175.073181 126.290199
175.110703 761.109375
175.14418 48.994781
175.185013 1.777778
175.236984 9.151881
175.334183 9.386905
175.348648 13.52355
175.39444 4.640152
175.479752 2.14881
175.586609 8.284091
175.917633 4.185606
176.024124 4.927083
176.052429 18.39646
176.130951 8.68889
176.357254 14.69187
176.676636 2.75
176.810287 9.099206
177.059219 34.189678
177.090698 399.584991
177.157272 2.666667
177.260147 5.136111
177.269287 8.818548
177.421814 8.081897
177.521072 4.375
177.621078 6.013889
177.741364 9.371913
178.349426 14.43333
179.084808 153.1978
179.104355 207.110199
179.130798 2.669444
179.236908 2.111111
180.768982 3.760417
181.09967 190.839203
181.263687 22.34947
181.414352 4.675
181.650909 19.22669
182.564697 4.0
182.856323 2.672619
183.100296 425.4711
183.119431 19.6681
183.218658 10.66667
183.398605 19.348431
183.454727 17.075251
183.496597 7.070402
183.84697 3.075
184.076706 5.340909
184.119995 26.44681
184.171524 19.375
184.189987 4.691667
184.203369 7.208333
184.369446 6.75
184.544266 10.20833
185.025467 9.371212
185.095261 5806.147949
185.12825 123.705597
185.154205 41.491909
185.185089 21.903191
185.197037 6.710784
185.23291 7.6
185.253845 6.001984
185.268051 2.337963
185.301651 11.26667
185.334381 6.201666
185.386414 4.35
185.400696 14.04748
185.481125 6.564103
185.498383 34.599701
185.514389 19.000731
185.585449 4.009259
185.658188 25.02952
185.751358 13.3555
185.803528 6.344048
185.823166 4.891667
185.859726 13.43167
185.983047 11.96491
186.021957 12.6713
186.100555 52.928108
186.379181 3.266667
186.391998 16.05192
186.471268 2.041667
186.983093 4.387821
187.07431 9.708333
187.111389 3426.833008
187.173874 5.416667
187.232315 23.77174
187.268158 12.72904
187.291473 4.708333
187.31456 6.001263
187.330811 7.680555
187.366928 5.692308
187.380463 10.06127
187.462189 10.50508
187.484634 20.33333
187.524109 14.66724
187.557465 7.078432
187.632858 5.666667
187.652893 20.059521
187.716629 12.6875
187.753387 14.7555
187.79567 19.01235
187.814835 5.0625
187.857742 9.671296
187.948349 9.667553
187.973587 21.744049
188.000809 2.347222
188.202438 2.408333
188.661728 9.506945
188.807816 7.388514
188.911865 20.004169
189.090195 1021.200012
189.123199 157.076294
189.147354 5.668333
189.194214 2.14881
189.401031 2.722222
189.43396 2.75
189.731476 9.386905
190.047928 15.43539
190.345383 5.005952
190.787216 13.47756
191.080566 13.17729
191.106979 202.201202
191.142609 98.322792
192.067551 4.001812
192.089233 42.647411
192.556213 2.893518
193.100693 23.66848
193.118637 30.938959
193.7621 7.777778
194.044479 18.48571
194.956711 22.385309
195.080292 130.564301
195.11496 172.951904
195.428146 15.03
196.317169 6.633772
196.899918 8.20119
197.096298 454.789612
197.138885 2.678571
197.168198 14.5
197.559067 6.703703
197.647339 5.444445
198.048462 10.41987
198.396225 6.335145
198.891434 8.692307
199.069885 35.70454
199.110977 859.342224
199.153488 15.40833
199.176102 6.160257
199.190857 24.89308
199.250092 30.033291
199.275009 6.080128
199.483887 3.741667
200.121307 99.247757
200.464539 8.006945
200.645599 77.158203
200.686249 5.002451
201.060974 8.023809
201.089096 191.742905
201.126648 483.149292
201.159683 2.354167
201.232941 7.736111
201.294403 9.680555
201.549637 12.19753
201.898697 18.48333
202.251572 6.391026
203.069183 24.48148
203.105911 11.95833
203.145187 96.752739
204.102768 10.54688
204.787567 8.030303
205.098358 76.910316
205.122162 213.3349
205.424271 2.041667
205.599899 11.11574
206.783859 6.125
207.118073 20.26042
208.031387 8.4375
208.132126 24.88805
208.142792 81.047623
208.367722 10.01961
209.040314 5.125
209.095078 256.55069
209.116928 32.344051
209.129364 55.307751
209.272949 7.058333
209.378403 5.856061
209.655273 4.71627
209.956375 2.520833
210.100586 191.341797
210.174438 3.028846
210.649521 8.518678
210.673706 8.146739
210.81543 4.673077
210.91246 4.297619
210.992264 2.347222
211.111282 2716.032959
211.173431 31.214769
211.198944 13.34167
211.219559 4.034091
211.240082 10.92004
211.270279 19.24074
211.290512 9.444445
211.336029 7.340909
211.376495 14.34375
211.396408 2.449074
211.427063 5.019737
211.453751 4.083333
211.481628 6.260417
211.549713 12.78243
211.575272 19.07778
211.843399 4.388158
211.857254 2.016667
211.88295 16.66667
212.009277 4.844298
212.095322 4.688725
212.198547 13.2395
212.691986 42.800999
212.800522 12.97961
213.086212 61.92804
213.127014 1280.859009
213.242142 13.24038
213.331177 7.640152
213.360382 3.640152
213.438705 14.01389
213.495972 7.335318
213.549347 2.916667
213.636871 2.815476
213.709671 4.080128
213.774643 9.980769
213.846848 9.007653
214.213303 5.742284
215.107452 26.294451
215.142776 183.530594
215.216278 2.520833
215.42038 28.11484
215.804855 8.001126
217.089417 12.02222
217.114075 147.173401
219.133926 81.76844
220.07782 19.013889
220.21817 12.15
220.385757 4.347222
220.883591 2.733333
220.971558 9.333333
221.092575 54.77309
221.131927 1.720238
221.152832 41.028851
222.10112 41.438438
222.276672 17.375
222.531082 35.499641
223.11264 941.643982
223.174881 9.084146
223.195663 4.019737
223.831375 9.338889
224.992874 4.157052
225.055008 1.720238
225.087631 65.193443
225.126572 349.452789
225.164352 91.785172
225.225525 19.944441
225.373657 5.573412
225.497833 10.94833
225.535492 36.8102
225.688416 20.70709
225.890076 9.25
227.100189 22.00514
227.141708 809.764771
227.294769 4.157052
227.427429 29.68116
227.462051 7.068182
227.76973 32.99741
227.808533 4.083333
227.992279 20.34375
228.340225 45.829151
228.38649 4.011905
229.065018 13.11574
229.097549 35.546879
229.110641 24.07626
229.124344 125.064796
229.160416 25.81175
229.191589 3.678571
229.471298 4.225
229.782059 34.809738
230.120087 61.001339
230.652786 15.76875
230.721481 16.693939
231.001526 13.29348
231.137375 779.26239
231.260788 7.130208
231.308395 3.010417
231.583237 15.04412
231.705414 4.003788
231.848404 5.001667
231.949112 14.35874
232.55687 4.306818
233.099594 139.775101
233.134232 42.635521
233.146805 4.675926
233.344604 14.75512
233.764618 8.004386
233.813126 7.779321
234.643066 7.677381
235.10997 497.460297
235.17627 8.144048
235.226181 2.520833
235.288391 13.12821
235.379166 12.56199
235.426834 4.469445
235.469788 7.357143
235.801285 19.69231
235.865494 4.225
235.971863 7.520833
236.117737 234.581696
236.150467 26.14744
236.822678 21.62722
237.089966 58.553421
237.127884 1775.510986
237.186523 2.336539
237.202591 32.223381
237.229385 7.789216
237.282974 6.33477
237.302902 12.11806
237.374008 3.933333
237.443771 5.673077
237.467194 7.297619
237.551041 10.52365
237.614594 17.171749
237.685074 7.173851
237.737411 24.07407
237.772949 11.3952
237.845993 3.686404
238.134735 1255.453003
238.391556 15.82843
238.570663 19.0466
239.103821 11.3344
239.291901 23.66297
239.308472 16.54825
239.367462 20.114731
239.397171 11.66667
239.415222 3.375
239.436752 8.348485
239.581543 10.78922
239.773666 20.627451
239.986145 2.336539
240.002136 3.066667
240.146057 183.6129
240.240219 16.54167
240.541565 10.28004
240.827393 14.4563
241.115143 57.75
241.128922 11.64744
241.157578 597.929688
241.308517 22.110291
241.45697 3.333333
241.481308 5.041667
241.654327 3.333333
241.750473 20.613371
241.973511 9.010715
242.49408 2.336539
243.099594 46.95266
243.138153 18.755119
244.427872 6.25926
245.114212 28.63344
245.133728 43.474079
245.74823 10.10746
246.103607 32.728981
247.109695 72.14547
247.145432 49.123741
247.181519 3.520833
247.388992 4.59375
247.678085 5.357143
247.990906 7.779321
248.114944 116.948601
248.636322 2.333333
248.676788 16.74107
249.127167 767.188171
249.212494 10.41667
249.297729 8.401667
249.345795 47.674271
249.449539 8.351191
249.603607 19.694441
249.652725 4.413462
249.727661 35.827782
249.766693 26.127541
249.892059 18.5744
250.096436 41.92683
250.577316 4.408333
250.694809 52.28323
250.814224 2.761364
251.108353 116.827202
251.142456 2505.365967
251.227554 3.666667
251.282761 8.708333
251.353317 18.648279
251.415314 16.87698
251.458923 11.38568
251.50885 4.340278
251.541962 6.364899
251.582153 26.97888
251.636871 3.720238
251.85498 22.09399
251.869156 54.024719
251.991379 9.080882
252.091736 24.46759
252.125809 4.720238
252.4561 11.13038
253.034546 8.494048
253.125443 148.778198
253.158844 6038.530762
253.229797 31.775141
253.254639 85.319366
253.287903 11.5641
253.327271 13.75347
253.349487 18.004869
253.372604 28.67857
253.398941 11.39103
253.412018 24.153709
253.438049 5.37037
253.477173 64.314018
253.498886 9.720239
253.554596 13.12857
253.584824 56.0994
253.667404 6.387821
253.781525 24.681339
253.80925 29.11599
253.825821 13.35185
254.03653 4.734848
254.210007 21.335779
254.496948 14.58586
255.119308 37.667419
255.175674 533.731384
255.385712 11.45864
255.419556 15.17729
255.653488 25.937941
255.754898 14.45614
256.092255 6.840517
256.10907 13.49135
256.140472 136.997803
257.1138 46.418739
257.190826 10.45581
257.301788 4.120098
257.704834 13.92754
258.715546 13.43333
259.144775 89.546547
259.325806 4.335
259.589203 10.08654
259.733978 3.386905
259.79126 7.37037
260.116058 103.995102
260.162964 45.185501
260.459961 6.818182
261.127777 773.80072
261.189117 10.94286
261.263794 11.3705
261.385925 2.339286
261.470642 12.7067
261.52655 8.05
261.600037 5.760417
261.713745 26.224079
262.162262 24.457069
262.399353 12.04167
262.42749 5.340278
262.754669 27.348009
262.992615 11.48761
263.142395 768.711975
263.178955 210.770401
263.280426 2.041667
263.346893 7.00641
263.516266 7.921875
263.562561 50.416611
263.765228 24.720591
263.810974 24.89966
264.065277 7.111111
264.156189 116.6744
264.343323 7.002778
264.607361 24.826719
264.709961 8.375841
264.980988 3.675
265.12262 137.029999
265.157867 637.376099
265.245575 17.670641
265.286835 26.70673
265.405945 9.267858
265.478394 5.733334
265.77002 3.166667
266.461517 12.97961
266.870117 7.333333
267.137115 458.513092
267.222626 7.335526
267.321106 3.640152
267.353424 6.364899
267.507019 7.001812
267.73468 8.061869
268.05246 7.107143
268.178864 9.240384
268.35199 5.306818
268.904602 3.266667
269.086731 4.001812
269.110962 77.766586
269.153046 349.871613
269.233856 2.333333
269.742188 4.007576
269.880707 7.446428
271.132202 22.475
271.465088 2.003788
272.658234 6.728535
273.128387 73.719673
273.161194 32.846149
273.286407 3.857143
273.394104 22.67244
273.474548 5.415
273.80719 11.18939
274.138336 403.993408
274.525482 6.25
275.142883 509.421906
275.255127 2.35
275.324402 9.676282
275.58432 7.719017
276.121582 5.088768
276.162354 18.01667
276.474335 4.349638
276.896759 7.334402
277.121033 50.785469
277.159485 1176.666016
277.412201 8.20119
277.426697 8.775641
277.493744 2.341667
277.545502 9.735544
277.562866 7.388514
277.587555 2.408333
277.605804 20.963091
277.742004 49.844269
277.7995 14.97348
277.897034 9.361112
278.1315 91.111458
278.276581 20.93257
278.403137 31.846109
278.584686 24.32303
278.659454 17.334351
278.822021 9.676282
279.138245 1023.148987
279.173798 2481.698975
279.286926 6.66821
279.35675 6.826923
279.436584 13.95337
279.474274 14.83333
279.513733 21.853121
279.564667 48.043049
279.624603 12.11484
279.659271 25.802679
279.679657 22.66667
279.69986 9.823148
279.72641 14.875
279.747253 6.668651
279.775452 48.903252
279.827911 15.0394
279.880554 5.380952
279.999695 22.087721
280.033447 13.66793
280.18161 3064.010986
280.193176 24.444441
280.252899 11.40741
280.367889 20.64855
280.3927 11.93378
280.424408 13.69338
280.485779 7.382936
280.544525 19.838711
280.625732 5.666667
280.719299 18.880341
280.74231 29.001341
280.940155 19.158899
280.987152 13.40517
281.068817 5.338889
281.100891 2.916667
281.348816 4.678571
281.428406 63.01535
281.529785 1.720238
281.640686 10.01071
281.677673 13.0803
281.731964 26.970449
282.031982 11.74383
282.492615 5.490385
283.126831 13.26453
283.160461 73.675903
283.825958 7.84375
283.869507 6.201666
284.026459 4.017857
285.146667 187.253494
285.166718 39.041672
287.160675 98.175407
288.157623 183.400299
288.524841 6.506945
288.749207 17.17778
289.230927 15.51515
289.418152 15.47619
289.453308 4.481482
289.559784 17.338079
289.891388 12.11935
290.761932 8.694445
291.174347 559.093018
291.285034 12.11935
291.375336 32.79332
291.410461 8.339286
291.427551 7.690476
291.470245 18.20154
291.534454 8.352941
