>compound MLS000863588-01!2-methoxy-3-methyl-9H-carbazole
>formula C14H13NO
>ionization [M+H]+
>parentmass 212.108
#inchi InChI=1S/C14H13NO/c1-9-7-11-10-5-3-4-6-12(10)15-13(11)8-14(9)16-2/h3-8,15H,1-2H3
#inchikey XYYYPIAQQFQTAN
#Ion_Source LC-ESI
#Instrument qTof
#Compound_Source NIH Natural Product Library
#PI Dorrestein
#Data_Collector VVP/LMS
#Scan -1
#Precursor_MZ 212.108
#ExactMass 211.1
#Charge 1
#CAS_Number N/A
#Pubmed_ID N/A
#Smiles COc1cc2[nH]c3ccccc3c2cc1C
#INCHI_AUX N/A
#Library_Class 3
#SpectrumID CCMSLIB00000079363
#IonMode Positive
#UpdateWorkflowName UPDATE-SINGLE-ANNOTATED-BRONZE
#LibraryQualityString Bronze
#TaskID b1d8e8f6646f4e71acdff9ca3d919d08
##Scan# 2520
#SpectrumFile p1-B05_GB5_01_17889.mzXML
#LibraryName NIH_Natural_Products_Library.mgf
#MQScore -1
#Organism NIH_Natural_Products_Library
#TIC_Query 0
#RT_Query -1
#MZErrorPPM -1
#SharedPeaks 0
#MassDiff 0
#LibMZ -1
#SpecMZ 212.108
#SpecCharge 0
#internalFilename spec-00000.mgf

>collision 10
95.56881 88.0
97.821404 108.0
98.018356 136.0
100.225731 208.0
102.061195 180.0
102.246262 68.0
104.883331 172.0
104.897598 88.0
105.068893 140.0
106.814247 208.0
107.665459 204.0
110.354347 156.0
111.862732 136.0
113.816223 96.0
114.549942 192.0
120.179283 160.0
122.084999 132.0
125.058472 144.0
125.454964 176.0
127.056175 112.0
128.050095 184.0
130.061981 584.0
132.064789 156.0
132.813766 148.0
132.86882 208.0
132.905533 184.0
133.270599 112.0
139.010849 64.0
140.064117 128.0
143.190582 184.0
145.056656 212.0
146.06517 128.0
149.031509 64.0
150.046402 144.0
151.054749 304.0
152.063568 900.0
153.069016 136.0
153.575134 136.0
153.703415 20.0
154.066162 1916.0
154.086807 268.0
154.194839 48.0
154.568253 60.0
155.0672 104.0
159.725174 136.0
164.379303 212.0
166.606812 152.0
167.072083 584.0
167.108139 120.0
168.078506 672.0
168.198227 204.0
169.085526 320.0
169.444672 80.0
170.074799 212.0
170.09816 192.0
173.66243 64.0
178.060989 380.0
179.032867 244.0
179.070282 300.0
179.643219 228.0
180.079681 1832.0
180.802811 56.0
181.083435 592.0
181.767532 20.0
182.060226 928.0
182.229355 80.0
183.057236 136.0
184.095993 148.0
196.075851 1536.0
196.671753 76.0
196.923035 100.0
197.081665 1660.0
197.168304 96.0
197.322632 56.0
197.400925 72.0
197.588318 72.0
197.686249 84.0
198.086349 140.0
198.307144 68.0
200.474762 108.0
216.885559 148.0
229.880493 40.0
244.387802 144.0
247.325943 20.0
252.095398 164.0
508.197479 20.0
649.036804 20.0
847.408936 40.0
905.213562 20.0
1055.679077 20.0
1266.766235 64.0
1306.285156 232.0
1334.751587 152.0
1473.553833 36.0
1474.638916 128.0
