>compound DorzolamideHCl
>formula C10H16N2O4S3 
>ionization [M+H]+
>parentmass 325.033997
#inchi InChI=1S/C10H16N2O4S3/c1-3-12-8-4-6(2)18(13,14)10-7(8)5-9(17-10)19(11,15)16/h5-6,8,12H,3-4H2,1-2H3,(H2,11,15,16)/t6-,8-/m0/s1
#inchikey IAVUPMFITXYVAF
#Ion_Source LC-ESI
#Instrument qTof
#Compound_Source Isolated
#PI Sirenas
#Data_Collector Ed Esquenazi 
#Scan -1
#Precursor_MZ 325.035
#ExactMass 0.0
#Charge 1
#CAS_Number N/A
#Pubmed_ID N/A
#Smiles N/A
#INCHI_AUX N/A
#Library_Class 3
#SpectrumID CCMSLIB00000004222
#IonMode Positive
#UpdateWorkflowName UPDATE-SINGLE-ANNOTATED-BRONZE
#LibraryQualityString Bronze
#TaskID d19310cd93df49b68e9fcbec27720eb5
##Scan# 2
#SpectrumFile DorzolamideHCl.mgf
#LibraryName fda_library.mgf
#MQScore -1
#Organism fda_library
#TIC_Query 0
#RT_Query -1
#MZErrorPPM -1
#SharedPeaks 0
#MassDiff 0
#LibMZ -1
#SpecMZ 325.035
#SpecCharge 0
#internalFilename spec-00000.mgf

>collision 10
102.046196 66.633163
102.071106 3.025
102.087036 29.263321
105.49472 8.222222
111.026382 58.738239
114.969925 36.099998
119.049263 4.580357
121.012367 79.128571
121.975136 4.025
123.025177 538.423279
123.876671 8.09375
123.961563 22.79167
125.03801 104.985199
126.308678 68.556023
126.968407 186.843307
127.97287 62.62331
130.961578 61.983479
133.323639 6.6125
134.01564 246.503296
134.2164 17.5375
134.248123 11.22727
134.273376 43.028622
134.303345 31.594231
134.332642 20.223221
134.341934 11.90833
134.357986 3.025
134.365128 48.839531
134.418472 11.08277
134.426544 10.54464
134.43837 47.220989
134.457123 8.9
134.489075 4.9375
134.559235 31.105261
134.636536 8.266447
134.656555 19.52083
134.733368 35.522011
134.781464 20.322371
134.956528 8.004167
134.992035 16.944441
135.026077 18997.710938
135.075974 268.579895
135.105042 93.670952
135.141571 67.714287
135.157837 54.61552
135.178497 8.390625
135.218399 38.51717
135.23204 77.105858
135.277725 86.001892
135.317337 109.976601
135.373871 38.719051
135.388229 19.55191
135.416565 15.01148
135.428879 26.51442
135.445343 12.09191
135.465149 17.08882
135.490219 21.6
135.510376 48.492538
135.541107 60.2257
135.570862 35.840801
135.590958 29.75806
135.613495 43.971149
135.623108 6.511364
135.647415 9.479365
135.750763 9.625
135.839951 7.375
135.95491 16.9375
136.005127 184.212601
136.033508 7505.023926
136.128586 8.673611
136.185684 39.90139
136.252213 33.0625
136.292206 11.64583
136.341629 12.78409
136.361633 23.021549
136.39743 17.132811
136.456482 15.42045
136.479309 16.06806
136.531342 5.625
136.650055 21.16667
136.70285 21.59524
136.764389 11.11539
136.785706 34.618351
137.02037 8.541667
137.035278 91.609879
137.472931 37.74794
137.648239 11.84073
137.722961 10.36012
137.754379 23.583019
138.155853 12.39803
138.420715 15.00114
138.969009 44.44083
139.020447 441.603485
139.067337 11.16071
139.959839 13.5
139.972748 139.980499
140.282089 32.70417
142.427902 12.58266
142.958313 50.816349
143.993011 24.50128
150.01767 80.322571
150.101974 31.142719
150.18222 10.03333
150.208725 26.79018
150.237839 11.98491
150.413696 3.166667
150.453537 15.98098
150.487991 10.3
150.497864 8.518146
150.591782 9.526786
150.674011 7.225
150.690063 20.23703
150.869446 21.25893
150.91127 18.582661
150.92897 12.3025
150.997925 54.525002
151.020798 13258.919922
151.072739 124.511803
151.08786 13.22782
151.106537 21.029409
151.148163 42.542011
151.172516 85.203003
151.193558 13.36012
151.215714 44.00481
151.224274 12.025
151.241379 18.605261
151.271072 53.654381
151.282166 34.129631
151.314117 14.50169
151.326645 49.057781
151.336334 22.26078
151.344147 7.533088
151.365479 12.00216
151.392334 31.296049
151.411682 35.311722
151.446747 14.84375
151.489944 41.210121
151.538406 45.384621
151.575317 25.01429
151.596695 9.723214
151.622879 66.990227
151.644104 62.727211
151.665848 52.306721
151.687576 26.53064
152.052094 823.345215
152.274216 17.786989
152.296448 14.0625
152.317307 18.822371
152.587616 16.633329
152.598358 8.265625
152.947327 340.179901
152.98259 517.781311
153.11618 13.66118
153.223618 23.444441
153.685547 8.518146
153.988052 323.517303
154.178009 30.157049
154.242401 17.630211
154.296402 4.375
154.961243 484.887787
155.560669 21.1066
155.930038 6.002717
155.969727 1128.090942
156.200592 21.64464
156.22757 23.0
156.275406 18.816891
156.319672 10.95
156.653946 24.00568
157.090225 6.890625
158.214005 17.654409
158.960129 44.375
162.046997 87.604156
170.957214 112.000603
171.948364 98.291107
172.968597 33.582989
178.067291 195.063202
179.993881 129.216293
180.034744 2.541667
180.068512 6.8375
181.982773 123.895699
190.990936 22.9375
191.430878 72.153488
195.694275 58.053291
197.76413 31.493259
197.779984 4.225
197.806534 10.24013
197.842911 6.0125
197.861938 44.119629
197.878143 30.16667
197.896255 29.81786
197.938538 68.344383
197.99411 34.586929
198.018692 99.721672
198.034317 26.673611
198.084534 13.69837
198.101746 25.02562
198.117844 43.166851
198.15152 10.00417
198.199936 55.69009
198.293167 21.03064
198.331955 15.42006
198.547592 14.67361
198.787949 14.40179
198.837814 86.883667
198.957764 55.82045
198.988312 34247.441406
199.047928 93.850327
199.067749 37.015629
199.108719 25.56653
199.147964 14.125
199.188553 33.612499
199.219391 80.170624
199.238327 81.634659
199.26857 75.732513
199.285904 116.642303
199.313034 9.513889
199.326233 97.35099
199.351547 141.483795
199.378128 19.222219
199.398193 45.007679
199.418533 43.812931
199.446152 25.4375
199.461121 51.7729
199.482788 17.071119
199.495651 45.385921
199.510178 24.525
199.524826 12.0125
199.559769 27.23077
199.581818 55.60606
199.593231 3.080357
199.605194 38.998859
199.628372 70.360352
199.642593 31.04891
199.671753 36.04348
199.705811 101.793198
199.810333 30.22917
199.91597 32.4375
200.031113 47.813869
200.156876 18.18527
200.468887 28.2722
200.646301 23.316891
201.060394 19.55714
201.178833 12.86029
201.203415 17.033331
201.338409 25.889709
201.578888 9.828804
201.737701 26.955641
201.751602 15.50133
201.946472 75.849823
202.092697 9.502717
202.9272 1089.42395
202.983871 4.083333
203.047928 15.74493
203.094193 7.389423
203.152161 32.031891
203.32106 13.55357
203.350693 13.06793
203.380585 6.6125
203.449677 6.008929
203.957382 5.583333
204.284042 8.5125
207.956146 48.296371
212.500458 10.47115
213.772812 17.5625
213.825287 29.52632
213.84697 15.5625
213.877167 10.01042
213.942902 10.53846
213.978516 4.583333
214.131226 12.0
214.162247 12.675
214.218948 9.890625
214.254471 7.1
214.431686 23.0084
214.534058 10.5625
214.592819 11.48098
214.620209 7.002976
214.723801 59.218418
214.770706 21.82703
214.827347 19.96154
214.849808 17.38007
214.884903 14.63315
214.926147 26.51786
215.006302 5544.812988
215.068253 28.10965
215.100754 81.717239
215.132278 20.71607
215.188232 13.50298
215.246368 16.945311
215.274506 17.92061
215.293503 15.32237
215.324112 51.1283
215.365158 20.0928
215.38028 9.666667
215.411774 23.28261
215.431778 30.49432
215.524216 77.969833
215.563904 31.06452
215.577621 7.8375
215.683319 18.140989
215.786346 30.8125
215.804977 55.939949
215.845886 9.898026
215.880905 14.00189
215.910629 33.716221
216.014664 12685.849609
216.076599 74.41848
216.134018 46.766312
216.171677 19.14286
216.217636 45.86161
216.265961 87.332809
216.282364 42.57917
216.341248 11.00368
216.371613 47.332081
216.402847 22.58173
216.428177 12.11765
216.453659 8.7
216.482498 34.657742
216.547577 35.057949
216.592041 34.112499
216.621597 12.50298
216.648834 6.555555
216.67308 13.55114
216.689728 54.08812
216.709793 80.648514
216.749084 5.0
216.820328 36.441181
216.919785 21.83675
217.51474 9.828804
217.576523 24.66943
217.611893 17.52083
217.858444 7.05
217.917252 19.19556
218.089569 16.004999
218.268829 18.76078
218.60878 10.56618
218.946732 1200.312988
219.032349 3.25
219.061447 59.590069
219.077271 16.003679
219.370697 5.505682
219.411926 11.53811
219.504684 7.024457
219.628403 6.082237
219.706696 5.541667
219.850159 10.0
220.078873 28.70417
221.248642 19.847219
221.376526 7.142857
222.7742 7.625
223.408249 7.266448
223.793121 10.56793
223.951691 120.977402
224.090836 14.11141
224.298218 7.5
231.01918 38.04343
233.968048 304.290192
234.035278 4.5
234.542023 13.11539
234.568039 8.140625
234.583771 10.0
234.603592 20.944851
234.65155 59.487572
234.757233 19.071119
234.845367 20.02083
234.876923 7.0
234.999573 5.0625
235.058258 12.17457
235.111572 23.0625
235.196762 4.6
235.374557 13.58036
235.591919 11.50298
235.730179 65.947029
235.858963 13.00152
235.949844 11678.780273
236.029953 82.929359
236.073395 13.59559
236.099503 9.055555
236.119598 50.864861
236.161438 41.711208
236.177444 14.64653
236.216949 49.552078
236.25032 13.45043
236.272034 35.122089
236.315842 25.45833
236.346558 41.42157
236.391769 73.972298
236.444855 85.284477
236.505829 44.961048
236.550522 21.902241
236.58284 8.8125
236.789169 24.66806
236.907303 9.013889
237.068329 5.508929
237.635727 3.541667
237.733398 19.347759
237.850006 19.153851
238.022888 8.45
238.105118 21.025
238.494888 9.145833
258.787537 13.025
259.053131 126.600197
260.03244 45.361698
261.962097 108.360901
262.297058 4.03125
262.793182 17.005951
276.820709 14.50114
278.298645 25.06452
279.727356 11.95924
279.946167 59.444672
279.976837 1530.595947
280.046814 7.946429
280.181335 33.306549
280.27771 9.950658
280.490906 3.505682
280.572479 9.509615
280.887238 22.367649
292.431244 33.762501
322.908173 5.640625
323.139496 3.6
323.166748 2.506944
324.103363 29.59413
325.033997 1661.977051
325.194 15.68
325.219086 10.5875
325.28183 9.5625
325.311462 25.522499
325.360992 8.55388
325.444977 16.245001
325.498779 33.763512
325.56424 8.760417
325.677368 11.7025
325.928406 11.5225
326.852325 16.50139
327.406189 27.240129
328.13031 5.533088
391.902039 7.642857
400.456177 5.104167
865.533386 16.725
951.3927 13.72454
959.99292 13.04735
1124.643799 36.804771
