>compound Glimepiride
>formula C24H34N4O5S 
>ionization [M+H]+
>parentmass 491.232239
#inchi InChI=1S/C24H34N4O5S/c1-4-21-17(3)15-28(22(21)29)24(31)25-14-13-18-7-11-20(12-8-18)34(32,33)27-23(30)26-19-9-5-16(2)6-10-19/h7-8,11-12,16,19H,4-6,9-10,13-15H2,1-3H3,(H,25,31)(H2,26,27,30)
#inchikey WIGIZIANZCJQQY
#Ion_Source LC-ESI
#Instrument qTof
#Compound_Source Isolated
#PI Sirenas
#Data_Collector Ed Esquenazi 
#Scan -1
#Precursor_MZ 491.236
#ExactMass 0.0
#Charge 1
#CAS_Number N/A
#Pubmed_ID N/A
#Smiles N/A
#INCHI_AUX N/A
#Library_Class 3
#SpectrumID CCMSLIB00000005740
#IonMode Positive
#UpdateWorkflowName UPDATE-SINGLE-ANNOTATED-BRONZE
#LibraryQualityString Bronze
#TaskID d19310cd93df49b68e9fcbec27720eb5
##Scan# 1
#SpectrumFile Glimepiride.mgf
#LibraryName fda_library.mgf
#MQScore -1
#Organism fda_library
#TIC_Query 0
#RT_Query -1
#MZErrorPPM -1
#SharedPeaks 0
#MassDiff 0
#LibMZ -1
#SpecMZ 491.236
#SpecCharge 0
#internalFilename spec-00000.mgf

>collision 10
103.057327 34.3125
109.067818 39.8176
113.640167 7.5125
113.781891 31.97975
114.127205 965.733826
114.374428 5.28125
114.644043 6.3375
114.681526 8.0
114.707291 11.57143
124.074944 185.148697
124.222488 6.051136
125.45475 4.03125
125.466492 10.63333
125.482079 13.18445
125.522133 20.72961
125.544456 17.36364
125.566826 24.4
125.587341 12.90179
125.743721 17.45274
125.989204 9.001785
126.091362 6676.604004
126.138878 57.7523
126.172951 15.5329
126.212669 12.11141
126.235641 9.043269
126.258011 41.536289
126.270538 15.36058
126.311234 32.50758
126.333015 20.465281
126.348297 38.273651
126.384018 9.375
126.559967 10.52083
126.724396 15.50169
126.795555 13.88911
126.943802 9.59879
130.69873 11.15385
130.934402 10.22727
146.056061 39.75309
151.02037 22.55714
151.362579 7.091912
166.282867 5.785714
167.01384 279.774292
179.089844 41.01786
181.096329 313.792389
181.570709 5.033088
210.025955 116.380302
229.061417 21.625
261.715302 90.534851
270.132721 35.082241
270.447144 24.61161
292.10202 118.124802
292.26535 7.6125
292.315155 28.216351
333.12439 9.082237
335.104309 583.503113
335.159271 5.003676
335.29306 20.01442
335.55426 13.06806
336.240845 10.0625
348.277679 8.5625
349.805908 54.481991
349.848694 109.103302
349.890778 58.25985
349.919098 85.648064
349.961426 15.5928
350.027924 79.186287
350.0672 105.233597
350.097534 48.7803
350.127136 89.545464
350.185974 116.540398
350.216492 8.1875
350.254333 8.520833
350.354736 127.277496
350.470581 46.662788
350.545441 20.868919
350.755829 23.64065
350.814484 11.63333
350.950836 50.792
351.216309 5.723214
351.420715 13.55625
351.584015 14.6098
351.622925 6.340278
351.67511 8.09375
351.818665 11.00893
351.978943 5.125
352.041168 50.651211
352.079773 26.01852
352.134308 47242.460938
352.301636 29.889879
352.418121 88.19426
352.456848 38.907291
352.492706 91.367264
352.529694 47.363918
352.543427 48.713921
352.573608 63.304661
352.613373 75.27066
352.65448 171.791107
352.68573 27.04348
352.73703 190.713593
352.774963 78.585167
352.805054 79.858482
352.827026 115.302101
352.868652 63.416969
352.898407 81.753464
352.933472 130.851807
352.993683 82.022018
353.042847 48.51553
353.083038 115.554001
353.206085 26.365141
353.260254 30.847759
353.351044 69.582817
353.475372 90.944107
353.515503 28.86161
353.601166 9.541667
353.714844 35.842239
353.956238 11.97115
354.119995 94.1903
354.184784 14.51815
354.286133 35.257809
354.407318 11.67842
354.538422 7.59375
354.918457 17.0
354.951202 25.149389
355.593811 18.08696
356.085999 15.62019
356.39502 54.858761
356.528442 7.704167
356.565399 32.48214
356.650818 19.199289
357.202911 4.0
358.901276 6.0
361.840668 45.939529
367.306396 18.401779
378.111298 1291.371948
378.255127 6.091912
378.302734 28.555679
378.332611 29.455681
378.4039 24.545
378.457977 15.55787
378.642212 26.94231
378.729797 32.892319
378.986206 8.0
379.2117 4.1125
392.890228 11.9375
395.140106 39.336811
432.588287 3.673611
488.153015 3.9375
488.212189 4.017857
488.247864 19.08036
488.304626 45.93269
488.358459 7.8125
488.40506 35.814388
488.442871 20.00189
488.565857 17.35417
489.12735 8.026786
489.28125 18.425711
490.000427 12.76042
490.396576 7.53125
491.232239 5080.661133
491.345551 39.103771
491.376404 7.071429
491.428253 64.953163
491.46875 100.204498
491.553955 20.50481
491.584808 6.002976
491.640717 5.160714
491.704376 5.5
491.739105 9.075
491.802948 20.855431
491.907867 29.673611
492.011993 7.78125
492.086304 10.01042
492.124908 13.50694
492.379608 8.653846
492.501709 8.390625
492.672882 13.6625
492.765656 5.515625
493.794647 17.111839
494.945312 7.160714
495.219269 4.9
496.146179 11.52381
