>compound Simvastatin
>formula C25H38O5 
>ionization [M+H]+
>parentmass 419.28
#inchi InChI=1S/C25H38O5/c1-6-25(4,5)24(28)30-21-12-15(2)11-17-8-7-16(3)20(23(17)21)10-9-19-13-18(26)14-22(27)29-19/h7-8,11,15-16,18-21,23,26H,6,9-10,12-14H2,1-5H3/t15-,16-,18+,19+,20-,21-,23-/m0/s1
#inchikey RYMZZMVNJRMUDD
#Ion_Source LC-ESI
#Instrument qTof
#Compound_Source Isolated
#PI Sirenas
#Data_Collector Ed Esquenazi 
#Scan -1
#Precursor_MZ 419.28
#ExactMass 0.0
#Charge 1
#CAS_Number N/A
#Pubmed_ID N/A
#Smiles N/A
#INCHI_AUX N/A
#Library_Class 3
#SpectrumID CCMSLIB00000005804
#IonMode Positive
#UpdateWorkflowName UPDATE-SINGLE-ANNOTATED-BRONZE
#LibraryQualityString Bronze
#TaskID d19310cd93df49b68e9fcbec27720eb5
##Scan# 3
#SpectrumFile Simvastatin.mgf
#LibraryName fda_library.mgf
#MQScore -1
#Organism fda_library
#TIC_Query 0
#RT_Query -1
#MZErrorPPM -1
#SharedPeaks 0
#MassDiff 0
#LibMZ -1
#SpecMZ 419.28
#SpecCharge 0
#internalFilename spec-00000.mgf

>collision 10
101.060699 177.694901
101.107559 4.686404
101.48571 10.56522
101.527992 12.34964
101.857544 7.667857
103.054039 192.716003
103.197227 5.075
103.68084 5.371913
103.815498 9.342949
104.538109 12.20833
104.552948 15.44697
104.568321 2.016667
104.641983 6.336111
104.660759 14.05235
104.671135 14.66667
104.678246 4.041667
104.684334 11.16009
104.703468 10.53452
104.760941 9.795988
104.788994 10.69482
104.910141 12.11204
104.917297 3.333333
105.051735 32.04348
105.070038 8843.107422
105.11422 82.927063
105.125275 5.394608
105.14653 3.005953
105.159637 28.186041
105.177544 25.056601
105.193954 20.416031
105.211487 6.075
105.220345 2.722222
105.226822 19.43219
105.234802 27.36706
105.252579 10.26786
105.290749 33.822922
105.307632 15.1048
105.318504 11.04167
105.331001 15.33565
105.345329 20.93939
105.365509 26.49621
105.384483 6.763889
105.395401 21.2967
105.420555 10.5307
105.42643 7.823718
105.448853 8.001811
105.473427 7.74359
105.484489 16.015869
105.489189 20.87462
105.505898 7.022059
105.520317 1.672619
105.549026 26.039709
105.563278 12.25397
105.595451 14.48563
105.852928 9.667553
105.895882 14.72024
105.906761 7.054825
105.922348 11.60556
105.928108 7.102273
105.938843 7.67803
106.521889 5.640152
106.550514 8.081897
106.574493 10.45581
106.613022 5.856061
106.62027 7.010714
106.626915 12.52006
106.706505 5.347222
106.731659 12.89943
106.767601 9.336957
106.807152 6.694445
106.82872 9.353758
106.981201 25.166531
106.997398 7.347222
107.02021 9.546718
107.048691 434.785889
107.085297 7052.080078
107.130524 60.691399
107.145378 23.81287
107.166985 3.0
107.1922 18.00062
107.203003 15.40054
107.221016 8.4375
107.238655 26.75758
107.253937 30.70219
107.264191 13.3411
107.285866 6.671875
107.293068 6.716667
107.325508 6.682971
107.361565 12.20833
107.374428 8.218137
107.383179 5.688889
107.405869 22.940861
107.412376 13.00694
107.430046 9.005952
107.462746 13.52227
107.492645 27.403709
107.523819 17.18767
107.538261 10.64015
107.569199 7.266666
107.648476 20.29554
107.703743 6.906746
107.715126 19.75812
107.772972 6.25
107.787323 16.62722
108.09124 35.387878
108.195839 6.0
108.229958 8.881667
108.257797 11.45833
108.760597 10.5641
109.064178 654.841614
109.100807 1028.619019
109.146507 5.933333
109.196892 4.001812
109.224434 6.555555
109.402382 19.198139
109.531601 3.011905
109.589859 6.75
109.76474 7.058333
110.759468 3.266667
111.042931 50.694248
111.080338 182.748703
111.315788 5.680555
111.977234 8.782407
113.059334 60.11552
115.054893 707.336792
115.105827 2.625
115.275505 8.925926
115.286156 9.386905
115.370987 5.335526
115.483772 10.29643
115.585602 42.223381
115.790283 63.30061
115.912727 5.4
116.003349 13.5744
116.372444 34.081669
117.048096 67.651398
117.069336 1515.199951
117.11554 3.333333
117.161995 11.30952
117.213013 4.047619
117.348991 5.598684
117.412704 8.469594
117.480568 4.011905
117.49942 17.252081
117.580391 2.449074
117.605042 7.2
117.665451 6.564103
117.699371 5.347222
117.756424 8.583333
117.802017 14.84052
117.818863 4.722222
118.430229 8.401667
118.446922 6.761364
118.455429 12.56053
118.489502 18.09074
118.535263 8.081897
118.550117 10.25397
118.55957 4.958333
118.582535 41.87965
118.68924 8.641026
119.008873 20.50206
119.048416 130.575302
119.085167 5473.723145
119.130356 15.08845
119.146271 13.59524
119.21756 46.76284
119.225296 9.334678
119.232895 19.388741
119.253685 20.47451
119.270882 7.673077
119.278587 29.36054
119.287827 4.680556
119.327751 22.733891
119.344795 7.416667
119.361137 47.684921
119.384491 42.638371
119.411636 12.06586
119.430511 13.00347
119.455475 8.884804
119.476181 8.724359
119.510361 5.666667
119.555008 10.14833
119.622154 53.944561
119.700668 19.1875
119.987511 4.075
120.444183 9.111112
120.576424 2.041667
120.604355 3.055556
120.715973 8.595239
121.064293 158.947693
121.100868 2690.897949
121.132965 9.890432
121.145012 4.337121
121.151398 18.00144
121.164635 2.4
121.174034 6.337963
121.185776 3.380953
121.202675 2.700758
121.269516 3.083333
121.284691 16.907049
121.29866 2.625
121.330505 4.053571
121.40609 4.958333
121.423347 7.017857
121.438675 12.34069
121.488518 2.0
121.596077 8.022223
121.614693 13.54545
121.621628 21.05093
121.980591 52.57341
122.099121 15.88955
122.160477 8.881579
123.044373 114.192001
123.080589 257.780914
123.112427 171.397705
123.142921 1.720238
123.251068 10.79594
123.278099 7.058333
123.479034 4.741667
123.687096 17.84314
123.980949 16.70417
124.307701 8.005208
125.00296 9.364583
125.058289 250.577499
125.162109 11.89382
125.205299 5.671875
125.279274 11.11111
125.437454 20.0119
125.524712 14.00735
125.641663 1.671296
126.040695 26.52355
127.052437 204.942795
127.073631 223.115402
127.147621 4.531863
127.441994 19.356741
127.492897 11.72
127.591118 9.015873
127.892479 4.306818
128.015869 11.56944
128.061417 4653.403809
128.110138 10.57615
128.140335 5.347222
128.175995 41.460361
128.222595 3.291667
128.241638 4.136111
128.263901 9.057693
128.290817 11.01389
128.300568 6.160088
128.374435 17.14583
128.394012 10.35648
128.413727 2.680556
128.432938 13.08167
128.453278 14.53289
128.614868 14.91325
128.68985 17.539379
129.116409 14.13587
129.131821 6.906746
129.19606 24.01145
129.282761 7.107456
129.290359 10.93333
129.298309 3.358333
129.350739 41.49551
129.453018 7.041667
129.476822 6.840517
129.513123 20.80357
129.665482 22.36232
130.12764 6.259615
130.201813 11.01014
130.249573 11.45833
130.27742 4.531863
130.309021 5.363636
130.317093 8.135
130.368835 24.692511
130.39003 27.12397
130.400375 2.671296
130.428177 9.388514
130.447693 10.11111
130.473907 20.535879
130.48381 3.736111
130.503403 2.005952
130.515991 12.71381
130.552383 14.95207
130.631012 16.336109
130.666397 19.7537
130.719818 9.523809
130.762131 8.351851
130.778702 5.225
130.832291 4.680556
130.979889 2.815476
131.0625 76.149879
131.085464 12239.700195
131.13414 85.122467
131.1595 12.40351
131.175323 32.504349
131.189377 21.716789
131.19693 18.60178
131.208267 9.342593
131.224426 102.879303
131.254929 30.45842
131.291809 6.075
131.300873 59.381908
131.317505 17.148211
131.358261 10.75543
131.369888 26.331579
131.38765 73.79615
131.417419 34.58461
131.429123 11.01296
131.451263 4.666667
131.459473 30.076191
131.488708 25.0471
131.498734 9.724999
131.531052 8.20119
131.585449 4.721154
131.594894 14.75
131.602325 10.50694
131.66275 9.42455
131.698807 9.125
131.747055 25.6894
131.778534 4.8
131.814423 12.88469
131.857056 7.185606
131.878784 11.16329
131.922394 15.00126
132.119308 31.037029
132.414673 20.013889
132.443298 10.04435
132.522385 8.337501
132.538528 13.3343
132.556427 5.208333
132.57251 13.70833
132.859024 16.380951
133.026581 6.094697
133.06395 228.161896
133.100983 2186.413086
133.160706 7.690476
133.188248 10.80449
133.200073 5.724359
133.23616 23.72345
133.268234 6.003205
133.277679 29.756769
133.306091 17.1537
133.335831 6.0
133.408905 7.866667
133.41687 5.691667
133.479477 32.069969
133.51709 19.151239
133.52562 8.009259
133.654175 8.240196
133.754715 6.366667
133.815079 9.334302
134.076797 8.816667
134.375778 11.2598
134.460342 16.01647
134.687973 8.881667
134.770554 3.0
135.07991 298.483704
135.114136 257.851288
135.271805 14.33654
135.347855 12.3869
135.441788 16.712641
135.567459 2.083333
135.680786 9.852273
136.182098 24.361111
136.475174 5.002778
137.057785 65.277237
137.094543 125.708298
137.163834 1.666667
137.229095 5.76923
138.382324 19.045401
138.65097 3.66886
139.034271 25.375
139.074158 110.587898
139.2789 19.479731
140.195328 10.375
140.249054 4.694444
140.917343 15.3871
141.069336 4068.073975
141.169342 17.68494
141.193771 5.166667
141.22821 16.447531
141.30246 5.041667
141.351929 2.449074
141.421616 26.09145
141.479935 49.067188
141.496216 8.003205
141.620209 6.125
141.661621 8.041667
141.769287 24.065001
141.835556 3.440476
141.943314 11.36742
142.009644 7.35
142.127762 56.011169
142.154785 14.06944
142.182861 22.45192
142.192108 5.454545
142.217407 128.225494
142.225311 12.51087
142.251953 15.58989
142.290466 56.81889
142.313568 22.040489
142.329041 11.80474
142.353363 23.105261
142.376816 45.925529
142.406067 10.63377
142.426147 34.823929
142.442551 22.85519
142.470184 12.0
142.507248 16.85799
142.527222 2.782408
142.537613 13.71
142.551392 10.51042
142.603104 14.70476
142.619003 7.444445
142.802078 11.28409
142.887833 30.392651
142.911041 12.30682
143.085327 24876.279297
143.152008 7.347222
143.164581 9.010715
143.200241 28.28196
143.256927 107.438004
143.270935 21.83712
143.287979 39.789982
143.302277 72.047462
143.313507 31.740681
143.323425 126.238701
143.341751 60.60709
143.352814 22.373249
143.389771 16.04924
143.402649 96.260147
143.436188 82.655258
143.456726 25.88113
143.463791 47.211029
143.485428 67.293442
143.507462 23.870729
143.527893 77.339432
143.539413 16.67029
143.547699 11.58954
143.562622 29.23451
143.581406 22.817711
143.589996 10.69444
143.606064 5.708333
143.614624 6.606061
143.623016 22.370449
143.644226 22.58828
143.668594 10.02976
143.706848 37.631409
143.739792 16.275
143.773911 18.051279
143.807632 17.03134
143.854462 19.190479
143.912079 33.25304
143.922852 5.703703
143.944061 7.291667
143.985687 4.341667
144.027435 2.0
144.061264 32.18055
144.128357 16.37879
144.147888 11.82353
144.207047 26.33737
144.233063 126.460403
144.261841 22.945499
144.350235 26.378771
144.378281 28.91713
144.386703 14.425
144.499802 14.68709
144.550186 9.852273
144.617538 9.722222
144.629272 10.64015
144.658463 13.05833
144.68689 11.5006
144.927307 5.927083
144.948593 25.65399
144.959976 10.67157
145.000397 18.55682
145.063904 53.191502
145.101212 13612.219727
145.151764 68.298187
145.168381 101.8088
145.198837 21.025209
145.211395 16.339951
145.244202 30.56818
145.263107 25.063129
145.281998 37.7911
145.311081 37.096119
145.363571 32.398479
145.409698 11.24537
145.44249 44.11768
145.467239 6.371913
145.513397 15.66987
145.551331 12.08232
145.58432 4.157052
145.597046 25.02619
145.614136 12.66927
145.622528 3.666667
145.650818 36.163761
145.67717 3.355392
145.694016 54.641331
145.770721 19.710939
145.792801 20.361111
145.845276 11.80778
145.905319 23.939341
145.916534 10.03852
145.924942 13.0
145.961685 4.816667
146.068771 76.940948
146.336075 51.797791
146.673676 12.41721
146.720398 20.875
146.770874 7.35
146.808807 6.728535
146.817245 7.173851
147.078812 336.543915
147.116165 1228.270996
147.150436 4.335526
147.179947 3.440476
147.198593 6.721154
147.232498 20.120319
147.25473 21.51499
147.272842 12.74423
147.287277 19.210859
147.308838 17.5375
147.348938 15.48214
147.373581 6.055555
147.403824 5.88587
147.428741 23.534981
147.479446 6.673611
147.657272 8.449074
147.780045 26.43791
147.817703 9.671296
147.906799 6.337963
148.449844 9.338889
148.813599 30.26601
149.057602 64.459023
149.095322 546.356812
149.130188 21.5651
149.152557 1.741667
149.475311 14.78914
151.074203 515.725891
151.109207 18.18561
151.174118 4.00463
151.19136 33.410381
151.340851 4.688725
152.386917 1.671296
152.898392 9.823148
153.070786 160.2659
153.087555 110.378799
153.221191 6.002451
153.285797 7.334877
153.328674 7.355392
153.397797 8.122549
153.431152 9.633333
153.535294 2.675
153.635284 5.633333
154.074463 384.215912
154.085175 54.782089
154.232407 15.16346
154.269547 20.337721
154.283829 8.027778
154.316498 11.76923
154.343124 14.21491
154.386124 18.67742
154.453125 19.05179
154.520111 6.716667
154.918304 18.42708
154.971039 14.09722
155.059662 34.6674
155.085571 3955.410889
155.143051 55.918388
155.176514 5.136111
155.214615 17.654409
155.24646 101.855499
155.262451 19.960779
155.2995 7.352941
155.315475 7.791667
155.349609 7.07197
155.368912 12.17175
155.384262 7.84375
155.431839 9.692307
155.438339 13.43219
155.472534 17.449711
155.481766 3.125
155.511307 7.736111
155.520691 7.333333
155.533966 20.10527
155.585388 19.232759
155.605301 7.958333
155.634964 35.592781
155.659912 8.787879
155.689926 16.03253
155.702957 4.673077
155.75676 16.29524
155.8349 5.884804
156.093384 2746.996094
156.162384 9.681527
156.20076 7.054487
156.230865 15.08333
156.285538 32.92448
156.298264 19.24008
156.316513 12.52134
156.341553 22.040409
156.350433 7.692308
156.36348 6.705246
156.380249 9.615
156.391495 4.416667
156.441803 5.694445
156.495132 30.057949
156.515778 7.001812
156.540268 20.244049
156.573273 21.49342
156.711914 21.81481
156.872879 4.763889
156.916901 20.17452
156.929626 17.04003
156.952576 5.483334
156.96843 2.0
156.985779 11.39583
157.042999 9.739865
157.074585 99.247864
157.100998 9773.976562
157.158676 71.828247
157.193344 62.812099
157.208969 56.868832
157.265274 13.38272
157.286957 39.14397
157.314575 100.254799
157.339752 89.112709
157.353027 13.52083
157.361328 4.020833
157.372849 11.44643
157.386536 36.2565
157.404587 28.906521
157.435638 30.33889
157.443802 17.026711
157.453003 7.669117
157.468933 22.11458
157.481155 41.484951
157.497177 11.69907
157.52774 9.926471
157.540649 10.60556
157.554062 22.08075
157.624466 18.153851
157.806717 3.36218
157.831558 14.9375
157.865845 16.629761
157.880142 29.858681
158.002213 17.58333
158.108932 4202.959961
158.177811 8.148269
158.248459 32.81361
158.263885 73.204323
158.27919 42.003201
158.327545 9.446582
158.366592 8.684211
158.400055 33.881779
158.410385 9.334401
158.429611 40.967701
158.448212 13.36513
158.517807 41.648479
158.53421 21.1922
158.575348 18.617781
158.611893 28.667219
158.639175 16.74107
158.769608 3.413462
159.004135 19.149191
159.026596 35.790852
159.080765 235.070602
159.116745 14172.379883
159.170593 104.676003
159.19072 11.80303
159.208755 28.729931
159.221817 7.854167
159.237137 23.625
159.269714 12.33333
159.292053 21.979139
159.351471 79.902023
159.371094 49.51366
159.397537 22.757111
159.45546 16.055111
159.483978 38.151951
159.514313 32.650131
159.564804 28.633459
159.595581 25.840281
159.612457 31.86614
159.638763 9.083333
159.656448 6.703703
159.695908 11.06136
159.742264 19.01667
159.754837 28.552931
159.770676 12.375
159.805832 5.006944
159.823883 10.90948
159.858612 15.025
159.884995 4.019737
159.924591 7.342949
159.946869 14.52466
160.18866 6.00119
160.272339 14.13587
160.47049 5.708333
160.658585 4.347222
160.678253 25.545259
160.779221 7.102273
160.814514 12.44877
160.836792 21.388161
160.913254 10.64651
161.053833 36.146198
161.095718 475.246399
161.238312 21.350771
161.353149 20.010099
161.611008 16.988211
161.66362 2.111111
161.693634 4.673077
162.36293 14.82051
162.428802 11.14286
162.48645 3.402778
162.557404 18.7027
163.073975 207.857101
163.112595 251.756302
163.204117 14.68055
163.23233 2.333333
163.303146 4.802778
163.410141 4.340909
163.530243 18.398809
163.637665 20.94231
164.163284 20.771429
164.684509 5.729167
165.069107 411.741089
165.088211 547.184875
165.140198 2.0
165.556442 17.63456
165.795792 2.625
165.986221 11.52466
166.077881 654.989624
166.129669 3.669872
166.268951 6.827381
166.327026 10.67402
166.767197 4.531863
166.931549 5.387821
166.982254 26.660351
167.101578 70.513283
167.122116 2.00463
167.140091 2.339286
167.333557 9.668011
167.627945 5.884804
167.720734 15.28736
167.964172 10.04748
168.058868 6.705246
168.092087 837.458679
168.145248 50.185421
168.176147 17.66905
168.185181 4.44079
168.209412 16.10714
168.225906 46.481461
168.241196 7.177083
168.257355 9.375
168.281158 27.00794
168.307465 14.47738
168.323181 5.973485
168.348129 10.77778
168.36264 15.68254
168.374725 5.71627
168.397293 10.73848
168.420395 21.494949
168.505661 8.693376
168.564362 8.001437
168.655884 7.935
168.85878 32.359379
168.942551 24.313231
168.980408 24.133329
169.063736 78.411537
169.100754 10672.879883
169.157089 74.782143
169.183441 12.375
169.197815 124.348396
169.245102 15.66977
169.274933 89.450623
169.312897 63.12833
169.336716 9.427083
169.364777 7.666667
169.385818 27.915239
169.404587 27.55884
169.419479 32.356319
169.446579 30.34819
169.455399 16.337299
169.464493 18.001539
169.487778 55.394581
169.518738 18.83
169.532333 37.920811
169.578354 14.76025
169.59903 47.655972
169.609467 20.16279
169.618408 17.333941
169.634598 7.680555
169.67308 6.306159
169.684738 24.75577
169.722717 24.49367
169.731552 4.080128
169.764069 33.599979
169.799683 10.03852
170.044724 25.392651
170.171616 14.0
170.238342 8.558333
170.259125 40.040909
170.290268 27.42979
170.34729 9.229167
170.366821 19.692551
170.384979 11.01961
170.408157 29.48484
170.479187 12.6
170.588455 21.002781
170.648529 31.337749
170.662094 3.336538
170.70755 10.06061
170.929764 4.458333
170.98494 15.78602
170.994019 13.38667
171.082138 213.771698
171.116302 10519.339844
171.168823 23.444229
171.21434 8.666667
171.232147 23.43297
171.265793 10.79167
171.283112 40.32312
171.321182 7.522727
171.333954 9.224999
171.34314 6.041667
171.354065 12.83333
171.3797 10.47222
171.39003 6.001984
171.423019 16.179119
171.440811 24.167339
171.458359 14.15369
171.467514 13.30697
171.499359 9.005952
171.508453 17.0
171.553772 21.354589
171.613571 11.13782
171.622391 22.486111
171.672897 41.326672
171.702148 3.708333
171.711945 13.45259
171.750015 8.364899
171.847916 46.992661
171.865753 37.137611
171.900528 15.02977
171.974655 14.34167
171.987228 7.242816
172.029465 22.696529
172.04512 40.71627
172.099808 46.537151
172.196274 67.019852
172.220444 38.6819
172.233612 9.006945
172.268173 41.567459
172.298737 91.435997
172.324982 18.669451
172.359085 41.481201
172.379196 11.00321
172.416962 56.7771
172.486328 19.533331
172.512253 6.125
172.551224 22.42857
172.651642 2.208333
172.704224 7.672222
172.742966 18.473301
172.861435 38.099998
172.87854 41.210529
172.929672 33.587219
173.016556 9.053572
173.04747 21.24017
173.098038 332.589203
173.132446 25308.160156
173.267151 50.281799
173.31134 9.108334
173.327774 16.64138
173.34166 36.923882
173.359573 78.135857
173.378647 70.655632
173.397888 63.13752
173.412491 59.484322
173.439041 57.98605
173.449097 46.809849
173.46965 60.548962
173.495148 25.236111
173.504425 25.9765
173.54126 50.460991
173.555161 24.42021
173.576233 61.548168
173.599655 57.506031
173.62468 50.664349
173.663559 57.29821
173.68248 72.078133
173.705109 29.710899
173.721848 66.217438
173.735474 68.039467
173.769913 43.621849
173.779572 15.00758
173.8004 33.410061
173.812378 5.801667
174.023865 15.73973
174.200195 19.29302
174.248367 4.666667
174.312973 15.21894
174.489334 30.462549
174.523453 37.140499
174.588364 4.763889
174.651291 9.190476
174.868423 2.782408
174.896378 6.813406
174.93335 10.36687
175.073746 121.124397
175.099121 5.028846
175.10817 16.062241
175.150772 15.41333
175.223343 11.91241
175.344635 6.449713
175.546814 23.603661
175.628769 8.012931
175.828583 3.520833
175.886856 16.453329
176.168594 17.7129
176.496338 27.118521
177.08931 232.037903
177.124084 138.633698
177.301575 22.02206
177.339767 2.075
177.556564 3.355392
178.076172 153.669998
178.206146 14.08845
178.289749 11.3375
178.317627 8.666667
178.337067 9.410256
178.387314 24.33532
178.67128 9.859674
179.083923 728.781921
179.257263 7.130208
179.290405 15.06136
179.476242 11.73333
179.871445 5.002778
180.003281 10.28004
180.054642 5.160714
180.137787 19.15802
180.176865 21.049999
180.199371 4.763889
180.270752 13.34028
180.853149 7.541667
181.101334 1698.453003
181.155197 13.19775
