>compound Linezolid
>formula C16H20FN3O4 
>ionization [M+H]+
>parentmass 338.151733
#inchi InChI=1S/C16H20FN3O4/c1-11(21)18-9-13-10-20(16(22)24-13)12-2-3-15(14(17)8-12)19-4-6-23-7-5-19/h2-3,8,13H,4-7,9-10H2,1H3,(H,18,21)/t13-/m0/s1
#inchikey TYZROVQLWOKYKF
#Ion_Source LC-ESI
#Instrument qTof
#Compound_Source Isolated
#PI Sirenas
#Data_Collector Ed Esquenazi 
#Scan -1
#Precursor_MZ 338.151
#ExactMass 0.0
#Charge 1
#CAS_Number N/A
#Pubmed_ID N/A
#Smiles N/A
#INCHI_AUX N/A
#Library_Class 3
#SpectrumID CCMSLIB00000005897
#IonMode Positive
#UpdateWorkflowName UPDATE-SINGLE-ANNOTATED-BRONZE
#LibraryQualityString Bronze
#TaskID d19310cd93df49b68e9fcbec27720eb5
##Scan# 3
#SpectrumFile Linezolid.mgf
#LibraryName fda_library.mgf
#MQScore -1
#Organism fda_library
#TIC_Query 0
#RT_Query -1
#MZErrorPPM -1
#SharedPeaks 0
#MassDiff 0
#LibMZ -1
#SpecMZ 338.151
#SpecCharge 0
#internalFilename spec-00000.mgf

>collision 10
100.037224 52.836739
100.255028 8.049797
101.037857 220.162796
101.070923 2.347222
101.418327 5.121212
102.047417 2.720238
103.053108 253.5448
103.078705 2.680556
103.145821 14.77703
103.157021 5.125
103.188225 8.366936
103.587944 5.333333
103.96804 2.482143
104.048996 645.908813
104.111008 2.0
104.24456 27.08647
104.258224 10.68981
104.350601 4.382936
104.56749 8.001126
104.599655 19.56019
105.070526 60.85585
105.43026 10.41667
105.950653 6.583333
106.063202 99.710579
106.200294 8.022223
106.224663 11.64031
106.369652 8.708333
106.447075 8.088889
106.51049 10.85688
106.59227 10.38075
106.608543 6.107456
106.806305 10.68254
107.029381 128.807693
107.147049 12.53186
107.256195 11.93667
108.021751 148.068207
108.03389 274.792206
108.041977 5.888889
108.079231 10.19444
108.217598 11.48761
108.553535 14.0
108.717003 22.72464
108.894516 4.66886
109.031387 132.213104
109.04425 3289.750977
109.090637 6.001667
109.102631 7.495968
109.141518 10.08232
109.15242 3.355392
109.169754 13.06667
109.363327 7.68421
109.438828 2.482143
109.603226 7.708333
109.675453 14.04762
109.731522 7.779321
109.800339 13.25
110.050797 645.233276
110.099457 3.375
110.115295 4.013889
110.168823 9.009147
110.179893 2.670455
110.223412 5.939394
110.353302 9.375
110.475777 13.40076
110.572563 2.333333
110.633163 14.18561
110.783127 5.391026
110.922363 10.36687
111.080811 4.449074
111.087181 3.683333
111.126945 7.371212
111.156937 3.080128
111.358757 6.729167
111.417664 12.55408
111.615921 17.806589
111.707626 10.96296
111.722191 3.708333
112.356209 22.17289
112.49453 2.520833
112.687981 11.09886
113.179947 17.06731
114.030853 37.256531
114.043068 34.371208
114.054382 22.157049
115.054001 1438.636963
115.099182 34.2159
115.202026 8.601191
115.291641 5.66821
115.30658 11.06667
115.351593 35.66539
115.463531 7.429762
115.545715 4.786765
115.577576 4.208333
115.587845 27.47089
115.677254 24.331209
115.97998 8.333333
116.049606 2420.499023
116.06823 595.796387
116.110283 11.29688
116.141037 8.729167
116.243568 31.222879
116.324913 22.764139
116.420242 15.93297
116.44165 4.094697
116.64782 15.33333
117.05751 1103.784058
117.103645 16.893101
117.19162 42.147739
117.272369 15.00089
117.317474 23.578091
117.385345 12.06187
117.396736 14.61111
117.485909 17.778851
117.547562 7.560484
117.581497 17.722969
117.985497 13.3467
118.063927 967.244385
118.125221 2.666667
118.147377 8.481482
118.291763 7.337719
118.339767 5.075
118.750038 5.668011
118.987862 19.341669
119.167412 9.366936
119.423691 11.88005
120.036263 96.171623
120.08094 34.454971
120.245522 5.041667
120.918938 76.667412
121.042702 85.093452
121.075729 32.22625
121.528969 19.587299
121.667244 3.483333
122.039253 945.73938
122.048561 51.54034
122.144592 21.12995
122.283211 17.57209
122.332634 7.671875
122.46093 7.533333
122.514259 27.946859
122.559753 13.17083
122.576447 11.66786
122.66761 4.028846
122.768402 12.00107
123.048508 1913.407959
123.095726 12.70833
123.214409 11.24008
123.253883 4.166667
123.2733 5.025641
123.348625 7.791667
123.396927 9.423913
123.581245 3.640152
123.695114 10.59572
123.849854 17.569441
123.873093 45.034771
123.988197 11.15188
124.000366 10.00833
124.020203 48.876499
124.055405 3052.395996
124.10717 24.78294
124.120644 3.011905
124.159279 17.29167
124.186562 7.560484
124.213684 9.776316
124.26088 3.746795
124.314445 7.669117
124.360161 13.1875
124.399857 5.668478
124.423363 15.38964
124.442131 8.083333
124.462196 7.281666
124.531822 16.523729
124.543472 12.88
124.555519 10.22685
124.58358 13.71102
124.59951 39.568699
125.051239 1363.182007
125.061974 991.616516
125.125244 33.926281
125.147171 26.67864
125.267021 10.46833
125.328949 13.57992
125.34478 8.075
125.356209 6.05
125.496475 13.17045
125.750267 6.510965
125.757721 3.335784
125.797455 7.852564
126.033905 62.746689
126.069771 345.276215
126.288857 9.716464
126.347427 4.670455
126.41008 3.380953
126.433548 6.668333
126.492256 10.6796
127.053223 181.275604
127.11924 5.939394
128.049133 428.435394
128.097565 5.001437
128.223907 11.93895
128.253143 9.426724
128.354263 4.225
128.381226 9.369048
128.448242 8.049797
129.056595 205.769806
129.427917 16.68269
129.44574 12.77564
129.475388 6.71627
129.491241 12.75725
129.876724 2.625
129.89119 9.711957
130.065048 1413.703003
130.114426 15.52906
130.145142 5.120098
130.363541 6.787879
130.387589 4.136111
130.415146 6.083333
130.456924 17.456141
130.761154 14.88466
130.771896 6.002778
131.060883 1372.387939
131.107468 16.335421
131.135361 2.0
131.147308 9.527778
131.187164 4.691667
131.243332 3.347222
131.254898 18.82358
131.290771 9.375
131.307922 3.266667
131.326706 16.456869
131.45015 9.227151
131.559982 2.958333
131.573944 5.71627
131.829468 10.33446
131.957321 4.734848
132.046188 52.69931
132.065964 399.284698
132.081421 311.244598
132.133087 3.125
132.277206 3.025
132.377258 9.00641
132.387054 18.138069
132.617477 9.348333
132.640472 3.640152
132.70166 9.765873
132.985672 17.088329
133.003555 19.920731
133.043884 245.539505
133.075439 972.542786
133.123474 8.724999
133.22377 15.11725
133.456055 19.368311
133.494339 26.70833
133.71904 10.64651
133.785904 11.02541
133.806046 7.560484
133.842789 3.115741
134.04007 1018.065002
134.052063 110.834801
134.082962 40.46722
134.096649 30.895321
134.118591 27.95833
134.154266 23.667669
134.254745 7.008333
134.273239 6.354167
134.281296 9.666667
134.309036 7.675926
134.332611 10.375
134.341782 7.719017
134.359818 37.821739
134.406738 10.08854
134.42244 8.667735
134.44664 10.41987
134.468994 10.47593
134.499924 24.874929
134.511246 9.573718
134.527328 12.34069
134.672073 8.076923
134.721191 12.5
134.735703 9.828704
134.757416 8.136261
134.822037 9.075
134.975555 4.666667
134.984009 17.294121
135.047852 11585.230469
135.098846 183.362503
135.112671 25.449841
135.13237 25.815001
135.14238 18.962959
135.16246 42.9207
135.174164 62.39093
135.183685 13.38782
135.194977 81.63636
135.212967 85.542976
135.226166 12.66886
135.238419 8.0
135.247299 72.492439
135.26033 5.721491
135.279755 22.10714
135.307358 5.013889
135.336075 98.786392
135.373825 89.435318
135.394714 45.253132
135.441772 57.71323
135.462234 5.466667
135.469666 25.3382
135.509628 10.16376
135.517609 18.1
135.537964 5.363636
135.575729 77.509407
135.614929 7.429762
135.648865 8.385417
135.683807 25.746691
135.801361 10.01852
135.847504 9.896464
135.903 25.04006
135.935181 5.755435
136.055496 6491.160156
136.14592 53.26329
136.234711 6.075
136.260208 37.916409
136.267975 12.43011
136.286194 33.915771
136.296402 13.02679
136.323456 5.927083
136.373917 39.20396
136.414246 32.18066
136.455841 8.296569
136.473358 36.029758
136.500702 9.006945
136.528 10.33333
136.54834 11.33696
136.556229 12.42222
136.588989 10.33422
136.617157 22.620211
136.654816 23.96594
136.693512 18.04529
136.714981 15.5744
136.735397 7.350877
136.74353 11.2288
136.938873 2.333333
136.957184 7.083333
136.992279 23.907261
137.026947 95.500954
137.062164 11906.919922
137.099915 18.43627
137.114044 93.06546
137.13028 13.93056
137.183105 6.684524
137.197479 17.001261
137.211761 9.075
137.21907 2.14881
137.243118 5.222222
137.27301 17.26615
137.31366 14.33333
137.347885 55.79776
137.362885 7.615
137.377151 22.600929
137.403961 65.906647
137.42691 17.39588
137.468613 11.40514
137.513153 39.625271
137.542038 9.724999
137.561371 10.1859
137.584747 5.84375
137.678314 14.7893
137.725708 5.005952
137.831543 11.2
137.913391 29.025841
138.035873 35.790039
138.119415 10.22685
138.162903 14.33621
138.193573 24.51148
138.228516 7.430555
138.263763 11.26833
138.285141 32.78532
138.293777 11.01282
138.344315 19.3344
138.356949 27.5744
138.366653 3.852273
138.443039 58.8992
138.481979 10.33532
138.493622 6.802778
138.577744 46.84407
138.632874 18.504089
138.810425 3.449074
138.822052 2.4
138.893784 2.166667
139.100845 12.27381
139.25473 18.68033
139.32666 9.046875
139.4496 8.65661
139.52684 8.190217
139.717529 9.1875
139.729706 6.028846
139.812225 11.38816
139.848663 20.81341
140.053665 19.551359
140.282852 8.388441
140.400482 4.335784
140.421097 4.666667
140.949265 5.702587
141.055893 94.523308
141.238449 20.8715
141.275742 9.683333
141.634018 2.678571
141.805252 8.075
142.064896 2150.791992
142.170303 10.33426
142.212341 3.15
142.323837 15.39054
142.332123 2.354167
142.370819 3.640152
142.389099 3.926282
142.427521 5.028846
142.440063 8.039474
142.494858 8.223765
142.548981 17.72179
142.57489 14.01667
142.660873 1.777778
142.705551 22.728029
142.722855 10.5307
142.89299 15.16548
143.061966 1277.008057
143.122345 4.4
143.137192 4.083333
143.275848 11.00144
143.313599 2.386905
143.361313 18.130381
143.423706 3.916667
143.457581 19.977119
143.493484 36.33493
143.664749 7.573412
143.77948 8.069445
144.080017 1251.421997
144.130463 12.38889
144.272797 6.03592
144.323441 8.394608
144.349335 15.21365
144.356857 5.573412
144.516541 15.93939
144.525589 4.711957
144.670059 13.08255
144.837463 6.700269
145.042175 45.95739
145.076462 449.408112
145.123184 7.095238
145.204834 3.555556
145.252274 9.006945
145.302567 5.681667
145.354034 13.7219
145.39415 19.653851
145.722214 11.0049
145.730621 3.025
145.915466 2.4
146.039658 1149.609985
146.081833 167.657501
146.095108 182.616501
146.121445 5.668104
146.145645 29.587959
146.160629 42.738602
146.260651 13.375
146.289551 7.594136
146.340286 51.86182
146.378662 8.45
146.520218 8.4375
146.568604 15.41333
146.640152 20.80278
146.875168 7.671875
146.92337 6.25926
147.026978 5.711957
147.048553 500.567291
147.060837 278.013092
147.091248 361.553497
147.127914 26.537939
147.178909 24.00066
147.200272 13.55408
147.210968 19.71102
147.229996 27.64003
147.256042 6.010417
147.280701 35.69944
147.288635 9.67
147.311035 33.504299
147.339935 6.6875
147.358566 16.149691
147.374283 22.13023
147.383743 8.049603
147.393005 17.994471
147.406845 5.061275
147.428787 32.090271
147.454285 23.11031
147.467453 25.08889
147.48291 5.666667
147.492889 8.94697
147.5056 9.897988
147.516708 8.667857
147.539185 8.630952
147.665222 43.013359
147.717514 13.9753
147.78476 19.42942
147.835602 18.513201
147.876205 11.76894
147.93541 23.92971
147.942886 13.04389
147.981918 5.522727
148.055695 31799.240234
148.106873 32.279999
148.125732 20.901159
148.146912 11.46959
148.173279 21.01647
148.189865 10.4546
148.206177 26.77206
148.221512 57.541481
148.231888 22.98295
148.255188 64.192596
148.269806 39.14756
148.282455 104.0756
148.295471 66.985687
148.317978 147.611404
148.339035 48.896172
148.356674 57.185848
148.372406 21.814581
148.385345 50.135429
148.398773 31.21562
148.412231 49.387161
148.424805 46.550739
148.444794 65.428581
148.473892 55.471901
148.505463 42.085129
148.52771 30.492491
148.539536 64.769386
148.549545 51.233711
148.563889 24.843599
148.573547 49.903912
148.593231 56.147591
148.608658 16.3447
148.619034 9.564815
148.626968 7.666667
148.637787 42.494339
148.660385 78.363998
148.680969 11.68792
148.719955 30.933331
148.733154 44.659809
148.763138 38.000599
148.961105 8.011363
149.061432 10777.769531
149.104324 256.150787
149.118164 10.46354
149.134491 30.704321
149.16243 82.980141
149.184082 33.15678
149.195251 24.07184
149.208115 19.341669
149.225876 102.351196
149.282944 19.214279
149.360565 109.8657
149.368988 7.378623
149.400879 42.395771
149.462296 14.25
149.513489 3.773809
149.536484 38.16214
149.566727 25.06671
149.68367 19.34524
149.775253 19.66848
149.812149 10.66667
149.922241 34.760231
149.944565 24.01515
149.971191 15.95833
150.01239 22.82305
150.033401 62.432072
150.069977 5412.164062
150.12561 35.534641
150.139557 10.06818
150.16629 41.770828
150.194946 11.75212
150.22905 14.0404
150.246552 15.15
150.257385 43.858471
150.285614 52.474831
150.314606 8.394608
150.326675 7.375
150.339935 8.462607
150.349152 9.450001
150.375793 19.43655
150.384659 30.49193
150.415756 33.237122
150.434402 39.44025
150.460449 38.330261
150.482864 14.70833
150.491882 10.49342
150.507751 19.88899
150.558533 13.70833
150.608765 18.90675
150.635025 39.771431
150.647125 6.840278
150.686417 7.481667
150.69812 6.047619
150.734085 21.497129
150.818787 8.573413
150.993286 9.008721
151.03479 52.374321
151.066757 10582.400391
151.119034 150.365997
151.136368 22.6371
151.152496 43.385281
151.180496 30.91346
151.191055 37.313869
151.218857 147.121902
151.247055 33.333328
151.26825 18.783751
151.294373 15.56061
151.306137 67.966179
151.332428 41.74971
151.371582 48.189941
151.421616 63.2869
151.448639 20.397221
151.479538 23.747471
151.520111 55.607571
151.563522 11.46944
151.579346 14.70614
151.587234 3.816667
151.597977 23.421049
151.665176 7.442204
151.675323 12.56944
151.716583 7.028153
151.746109 26.95586
151.900909 20.00915
151.909485 14.76585
152.003647 6.522727
152.049728 184.455505
152.074326 5078.646973
152.208084 40.470112
152.235657 6.107456
152.261276 8.449074
152.279419 8.740942
152.288635 15.75
152.347382 14.70833
152.374146 28.334261
152.41066 16.41667
152.434555 6.075
152.472778 19.95833
152.486374 19.00379
152.582092 26.049801
152.648117 18.07222
152.670303 4.15
152.720963 16.614401
152.759735 37.369171
152.818787 6.857143
152.937897 3.0
152.958923 3.408334
153.046051 71.42009
153.056595 141.258102
153.081924 6947.666992
153.134552 64.648369
153.151001 14.58954
153.231674 15.47033
153.254517 4.333333
153.271988 8.34375
153.281403 7.0
153.296585 26.66667
153.327774 9.642095
153.340668 4.8
153.349274 8.670455
153.404968 19.551069
153.41954 15.79012
153.428436 6.201666
153.535568 14.83636
153.58519 20.40896
153.599808 10.75521
153.720139 14.33333
153.780396 11.0049
153.87532 11.12
153.93573 10.24242
153.961639 11.02671
154.064392 920.866577
154.266418 9.772436
154.320221 15.16462
154.393723 18.79427
154.43251 5.76923
154.453796 15.72185
154.514664 5.339743
154.566559 9.697917
154.582962 16.551359
154.679031 10.33333
154.713638 6.468334
155.036026 72.403763
155.071579 104.671303
155.112 2.337963
155.133667 9.351851
155.188919 4.964286
155.246292 10.01293
155.35907 3.010417
155.478699 9.680555
155.623688 2.722222
155.645584 30.393141
155.750671 12.97663
155.786148 8.506945
156.068085 1759.019043
156.12709 8.013888
156.179718 11.11111
156.192749 7.560484
156.208618 28.75
156.349411 8.30242
156.379028 5.225
156.410202 2.695513
156.662643 6.696428
156.863007 20.34964
157.07605 1530.213989
157.121445 3.028846
157.149551 20.934839
157.16423 13.13889
157.224869 13.00076
157.255142 14.46354
157.264496 4.898148
157.355438 36.815121
157.508652 5.208333
157.535156 16.03409
157.709427 8.765873
157.901642 11.19032
158.057037 113.992104
158.09288 233.929092
158.177246 5.755435
158.242889 5.666667
158.313614 5.260417
158.443756 3.375
158.467163 9.261905
158.498108 15.87
158.715866 16.705879
159.03598 9.001126
159.058807 184.3517
159.091354 1053.55896
159.145676 5.030303
159.193954 11.4
159.220291 10.0
159.286545 26.39677
159.321274 6.001437
159.501358 10.14982
159.641983 8.487069
159.861465 6.541667
159.919754 5.190476
160.053696 233.1436
160.073486 134.3797
160.359848 9.45
160.420944 9.204166
160.442978 2.678571
160.483093 10.22685
160.535538 9.117248
160.732254 15.04861
160.863617 6.25926
161.061493 1479.767944
161.117889 8.017544
161.166779 6.020833
161.20697 8.166667
161.229034 7.427083
161.312744 14.17647
161.325226 38.84314
161.341431 24.33412
161.35202 4.002451
161.374115 9.028153
161.38295 7.520833
161.399292 6.493421
161.422287 4.225
161.5233 9.136111
161.568619 9.671053
161.594543 6.001984
161.608688 16.91667
161.714584 6.335
161.763382 20.078951
161.900436 5.667929
162.033432 21.90675
162.071198 9130.016602
162.126297 151.667007
162.141205 32.898548
162.153931 27.93889
162.175552 24.99119
162.185272 44.916569
162.21106 73.61248
162.245041 55.91111
162.272659 49.71217
162.292313 9.125
162.307999 8.04529
162.319778 24.560419
162.34433 16.777781
162.3573 30.71208
162.388184 74.626152
162.414322 4.349638
162.432068 7.053572
162.445038 13.45278
162.454239 6.375
162.473618 18.17391
162.485794 40.244461
162.501038 33.729259
162.513336 14.02671
162.53862 21.165291
162.58284 6.335526
162.605026 8.338889
162.661911 77.51252
162.726181 18.04928
162.795029 14.70833
162.846786 30.309731
162.879562 24.14739
162.90419 12.44444
162.915726 6.401515
162.960251 5.148148
163.042389 75.241074
163.0672 19063.880859
163.136658 169.100998
163.15097 26.348009
163.19426 82.417374
163.211609 39.176102
163.260712 5.097222
163.300064 105.089897
163.310165 11.625
163.321121 78.335258
163.33017 24.962959
163.357956 23.30081
163.376099 23.450171
163.402298 17.880051
163.416565 26.23978
163.433395 122.570999
163.446762 41.925629
163.471054 71.936829
163.485916 71.600273
163.524612 16.35256
163.56424 12.08025
163.574966 12.34128
163.602127 7.761905
163.614487 27.762899
163.748871 27.00107
163.786652 16.63208
163.889755 16.12097
163.959595 6.416667
164.179581 53.17001
164.20575 86.27375
164.223602 55.39608
164.249634 18.555559
164.263916 6.380208
164.277512 59.552719
164.334488 10.41667
164.352707 28.5942
164.366119 5.136111
164.402176 12.39701
164.413422 31.25775
164.519653 17.19853
164.563095 6.306159
164.580643 11.01667
164.589569 4.0
164.654251 10.41667
164.710922 7.852564
164.844193 7.291667
164.911224 17.74423
164.920166 18.0049
164.951538 13.28656
165.044601 74.652107
165.055466 273.814697
165.082092 15738.740234
165.135361 52.355511
165.146912 10.85606
165.158417 19.44907
165.232895 28.0019
165.254669 21.730391
165.329468 20.35317
165.358673 52.32336
165.377853 95.349022
165.399307 25.85655
165.417252 81.266228
165.434753 13.17385
165.444138 26.58828
165.520203 74.113724
165.572922 14.36012
165.622635 12.97348
165.659744 35.166168
165.681885 11.3869
165.690842 24.376539
165.711792 6.564103
165.74086 16.75362
165.758209 25.65765
165.772171 27.495119
165.803925 5.520833
165.849258 18.2381
165.9021 24.251169
165.967636 12.3373
166.034317 5.720238
166.15477 23.774771
166.32254 12.29688
166.458206 11.79167
166.473923 11.722
166.539886 31.63891
166.62207 25.67557
166.640305 4.898148
166.79274 1.720238
166.836548 9.777778
167.059982 257.408386
167.071533 509.70459
167.097733 1410.547974
167.206223 14.25621
167.278351 6.333333
167.307236 7.55147
167.475616 28.040501
167.499161 8.170238
167.553207 2.449074
167.934494 6.15
168.115967 3.823718
168.129852 3.440476
168.147964 48.4729
168.18396 14.67432
168.193283 8.755208
168.204163 16.337959
168.226822 29.922729
168.259857 52.891529
168.28775 6.449713
168.305801 7.668478
168.315781 5.013889
168.337402 9.802928
168.360229 2.449074
168.378098 4.814815
168.387115 11.40833
168.405106 4.007576
168.427628 14.39934
168.433136 15.81718
168.509079 28.94766
168.55864 9.469697
168.816284 10.53452
169.042542 51.449081
169.075577 9810.574219
169.131393 123.805603
169.17453 19.6371
169.202209 49.19643
169.21312 11.04167
169.232239 20.700741
169.247162 11.22377
169.259842 22.74485
169.28096 6.721154
169.295792 33.10437
169.314331 8.458333
169.327347 7.666667
169.342072 27.92659
169.350555 29.854601
169.36174 11.44231
169.398773 50.014511
169.435715 20.111771
169.459686 21.86458
169.481293 6.057692
169.517044 4.4
169.532043 19.747549
169.554352 14.4518
169.571518 8.678572
169.590012 13.9679
169.598297 29.0375
169.61319 36.24564
169.648682 21.271931
169.728394 10.41178
169.75766 11.44444
169.775803 12.34921
169.866501 7.341667
