>compound MLS002154008-01!Pyrithyldione77-04-3
>formula C9H13NO2
>ionization [M+H]+
>parentmass 168.10190510809053
#inchi InChI=1S/C9H13NO2/c1-3-9(4-2)7(11)5-6-10-8(9)12/h5-6H,3-4H2,1-2H3,(H,10,12)
#inchikey NZASCBIBXNPDMH
#Ion_Source LC-ESI
#Instrument qTof
#Compound_Source NIH Pharmacologically Active Library
#PI Dorrestein
#Data_Collector VP/LMS
#Scan -1
#Precursor_MZ 168.105
#ExactMass 167.095
#Charge 1
#CAS_Number N/A
#Pubmed_ID N/A
#Smiles CCC1(CC)C(=O)NC=CC1=O
#INCHI_AUX N/A
#Library_Class 1
#SpectrumID CCMSLIB00000085596
#IonMode Positive
#UpdateWorkflowName UPDATE-SINGLE-ANNOTATED-GOLD
#LibraryQualityString Gold
#TaskID d252d724072548979f1f6f1ced849daf
##Scan# 1289
#SpectrumFile p4-D02_GD2_01_18362.mzXML
#LibraryName Pharm_Active_Library.mgf
#MQScore -1
#Organism Pharm_Active_Library
#TIC_Query 0
#RT_Query -1
#MZErrorPPM -1
#SharedPeaks 0
#MassDiff 0
#LibMZ -1
#SpecMZ 168.105
#SpecCharge 0
#internalFilename spec-00000.mgf

>collision 10
45.090359 140.0
45.103725 208.0
45.270966 168.0
45.37682 136.0
45.407661 44.0
45.638634 152.0
46.088829 108.0
46.28767 220.0
46.546665 168.0
47.500668 136.0
48.707127 204.0
49.021557 192.0
49.13031 172.0
49.306248 200.0
49.899189 144.0
50.436287 168.0
50.676865 144.0
51.127003 196.0
52.4389 132.0
52.603333 104.0
52.619213 48.0
52.838894 32.0
53.001053 40.0
53.121387 128.0
53.511925 132.0
53.860859 172.0
54.480499 184.0
55.088909 212.0
55.304798 148.0
55.383274 204.0
55.898438 204.0
56.448875 236.0
56.719864 160.0
56.818836 264.0
56.953938 220.0
57.319519 124.0
58.793533 176.0
59.203243 176.0
59.468472 204.0
59.96526 152.0
60.202843 224.0
61.48518 172.0
62.231861 160.0
62.881996 180.0
63.667255 36.0
64.187622 212.0
64.886345 180.0
65.3312 204.0
66.000519 68.0
66.282166 56.0
66.64888 172.0
66.985649 200.0
68.428444 216.0
68.495964 40.0
68.914993 124.0
69.270683 184.0
70.18309 212.0
70.278168 172.0
70.552605 188.0
70.642372 252.0
70.781288 144.0
71.474533 164.0
72.078186 132.0
74.817459 220.0
75.343452 164.0
75.504204 136.0
75.588966 88.0
75.659935 92.0
76.887108 152.0
77.59729 172.0
78.217415 236.0
78.612206 68.0
78.882431 244.0
79.087616 140.0
79.939499 188.0
80.545677 176.0
81.966583 128.0
82.500824 164.0
82.84285 204.0
83.478096 212.0
83.69281 80.0
84.243599 308.0
84.728394 224.0
85.862526 96.0
86.40374 124.0
86.857597 192.0
89.340256 184.0
91.057091 616.0
91.128761 44.0
91.400658 56.0
91.505341 228.0
92.014389 152.0
92.046844 140.0
92.060211 132.0
93.055267 188.0
93.06871 204.0
93.128883 236.0
93.634712 116.0
94.030632 144.0
94.04924 228.0
94.065109 508.0
94.683395 156.0
94.939209 104.0
95.049484 340.0
95.071129 208.0
95.449928 192.0
96.045204 484.0
96.301559 212.0
96.906029 52.0
97.011856 160.0
97.025581 276.0
97.050896 280.0
97.147163 100.0
97.298279 120.0
98.533112 48.0
98.954376 220.0
99.152458 144.0
99.253555 148.0
101.132195 212.0
101.687378 132.0
103.556396 140.0
103.878685 128.0
104.049675 2328.0
104.081635 44.0
104.097878 36.0
104.195374 48.0
104.357964 60.0
104.67131 72.0
105.050346 320.0
105.066719 296.0
105.634628 92.0
105.767639 108.0
105.824959 100.0
106.064644 416.0
106.171257 76.0
106.251251 128.0
106.335381 164.0
106.959862 116.0
107.001389 124.0
107.060738 156.0
108.045677 244.0
109.138687 176.0
110.04763 2160.0
110.230934 80.0
110.590645 172.0
111.02433 116.0
111.099838 76.0
111.559746 56.0
111.591278 180.0
111.797417 132.0
111.908981 100.0
112.036377 664.0
112.075371 220.0
113.042274 208.0
113.084801 164.0
113.457611 52.0
113.6782 52.0
114.682014 132.0
115.038231 180.0
116.005142 152.0
116.050163 168.0
116.178848 132.0
116.881409 72.0
117.884109 180.0
118.344841 136.0
119.05825 188.0
119.145134 72.0
120.043533 368.0
120.081131 148.0
120.220757 152.0
120.240402 172.0
120.637932 144.0
120.677284 124.0
120.79538 180.0
121.463478 112.0
121.953125 220.0
121.999283 176.0
122.059898 7860.0
122.097672 188.0
122.129021 96.0
122.465782 68.0
122.642044 120.0
122.752281 96.0
122.895653 84.0
123.064011 768.0
123.638123 132.0
123.700096 208.0
123.983604 228.0
124.0392 932.0
124.064552 156.0
124.747131 172.0
125.047279 1500.0
125.071602 3216.0
125.180489 36.0
125.225525 44.0
125.61113 48.0
126.019669 204.0
126.041634 140.0
126.078514 120.0
126.120232 88.0
126.178352 116.0
127.031586 84.0
127.056267 128.0
127.074211 164.0
135.448563 140.0
136.916458 200.0
137.046906 156.0
137.35231 52.0
138.054184 1112.0
138.710876 144.0
139.025162 56.0
139.063431 296.0
139.116699 44.0
139.537216 68.0
139.654785 248.0
139.880676 88.0
139.993683 172.0
140.070206 5512.0
140.116165 200.0
140.467422 52.0
141.075424 468.0
141.149963 44.0
142.03334 72.0
142.077057 168.0
142.664993 96.0
142.791016 72.0
148.699142 92.0
156.950745 60.0
167.118423 264.0
184.196655 60.0
188.19429 56.0
191.537323 88.0
279.104431 152.0
317.686768 60.0
374.897369 108.0
646.587646 192.0
813.391174 124.0
848.333069 136.0
848.686768 176.0
854.227234 136.0
881.443481 176.0
882.288696 152.0
903.861267 196.0
915.856201 180.0
946.97937 36.0
974.480347 224.0
979.643982 124.0
982.992065 148.0
994.570251 64.0
1010.741638 104.0
1043.456299 188.0
1069.715576 132.0
1078.456177 112.0
1078.834351 144.0
1091.403564 160.0
1097.184326 68.0
1098.245972 176.0
1101.962524 192.0
1110.707642 80.0
1112.864502 204.0
1119.90686 88.0
1130.26123 48.0
1136.99585 52.0
1142.37793 168.0
1148.028809 160.0
1155.817383 64.0
1175.29834 172.0
1176.062744 140.0
1176.331543 224.0
1180.51709 48.0
1181.016357 168.0
1186.206665 128.0
1187.530029 132.0
1202.149414 136.0
1216.677856 164.0
1224.465698 140.0
1226.59082 64.0
1228.299194 52.0
1228.961914 80.0
1230.888428 148.0
1252.059692 128.0
1254.17334 200.0
1257.940063 200.0
1268.154053 96.0
1271.338379 156.0
1271.586792 164.0
1273.084717 52.0
1273.162842 56.0
1274.135986 168.0
1275.14502 136.0
1280.174805 200.0
1282.803833 172.0
1287.634399 180.0
1290.299683 52.0
1294.005737 188.0
1294.213379 188.0
1299.309204 280.0
1300.615234 220.0
1304.817627 180.0
1306.514893 204.0
1312.875 164.0
1313.920898 176.0
1326.540283 208.0
1327.852661 176.0
1334.817017 112.0
1343.943848 176.0
1345.929199 204.0
1356.339722 140.0
1358.517578 240.0
1363.165161 212.0
1364.863159 224.0
1376.476074 164.0
1378.359741 180.0
1389.347168 132.0
1389.66626 164.0
1393.177856 148.0
1393.452759 84.0
1394.455933 36.0
1394.656616 180.0
1395.080322 136.0
1398.933716 76.0
1400.155273 224.0
1403.053345 192.0
1414.670044 136.0
1414.962036 160.0
1416.78186 200.0
1418.655396 84.0
1420.155151 184.0
1420.552612 140.0
1427.041382 264.0
1429.117188 136.0
1430.863281 140.0
1431.209717 100.0
1451.543457 260.0
1452.863159 148.0
1458.786621 188.0
1462.102783 260.0
1462.971558 148.0
1463.099976 248.0
1465.552368 172.0
1470.539673 316.0
1471.371704 200.0
1487.017944 188.0
1493.9104 44.0
1500.479492 148.0
1504.39856 192.0
