>compound Thioguanine
>formula C5H5N5S 
>ionization [M+H]+
>parentmass 168.033432
#inchi InChI=1S/C5H5N5S/c6-5-9-3-2(4(11)10-5)7-1-8-3/h1H,(H4,6,7,8,9,10,11)
#inchikey WYWHKKSPHMUBEB
#Ion_Source LC-ESI
#Instrument qTof
#Compound_Source Isolated
#PI Sirenas
#Data_Collector Ed Esquenazi 
#Scan -1
#Precursor_MZ 168.034
#ExactMass 0.0
#Charge 1
#CAS_Number N/A
#Pubmed_ID N/A
#Smiles N/A
#INCHI_AUX N/A
#Library_Class 3
#SpectrumID CCMSLIB00000005163
#IonMode Positive
#UpdateWorkflowName UPDATE-SINGLE-ANNOTATED-BRONZE
#LibraryQualityString Bronze
#TaskID d19310cd93df49b68e9fcbec27720eb5
##Scan# 1
#SpectrumFile Thioguanine.mgf
#LibraryName fda_library.mgf
#MQScore -1
#Organism fda_library
#TIC_Query 0
#RT_Query -1
#MZErrorPPM -1
#SharedPeaks 0
#MassDiff 0
#LibMZ -1
#SpecMZ 168.034
#SpecCharge 0
#internalFilename spec-00000.mgf

>collision 10
109.048935 78.720238
110.046677 206.590302
117.89756 38.777779
121.043915 25.00379
121.498749 876.232727
121.545662 22.225
121.754227 20.72024
123.993568 68.099998
125.853088 83.795097
126.011055 418.265289
126.255348 6.446429
126.759163 78.030342
129.011993 795.927673
129.0569 12.0
129.448868 25.165319
129.509644 601.148926
129.887222 12.04167
134.04303 621.468079
134.954926 761.420288
135.215393 52.160091
137.10791 45.640961
137.299072 14.00833
150.665146 24.011909
150.806519 45.18409
150.948822 181.844299
151.004959 2054.981934
151.058258 12.05357
151.088211 10.32143
151.468048 20.225
152.408127 26.644739
164.294601 44.666672
166.811661 38.573978
166.977722 26.64286
167.040009 11.34722
167.108887 76.333344
167.184799 71.32029
167.207596 71.422234
167.247849 19.29167
167.278503 69.975807
167.346771 16.20455
167.436783 15.00735
167.490784 10.32143
167.630661 31.41346
167.751862 13.59559
167.833176 24.226851
167.929245 31.640631
168.033432 31317.970703
168.161469 46.099098
168.210098 59.941181
168.256088 87.257622
168.277725 55.594391
168.306686 109.083298
168.330673 97.370392
168.364044 69.272728
168.387589 75.644234
168.424591 45.08345
168.446426 55.125
168.480972 35.840912
168.496841 32.727268
168.524216 54.370209
168.560135 59.200001
168.604736 31.08654
168.660751 64.322357
168.804565 108.333298
168.979874 27.01923
169.026413 198.407501
169.124969 31.59211
169.418976 31.007351
169.79274 6.025
170.233017 21.025
170.393768 30.032141
171.767441 17.595591
178.946274 181.920105
