>compound FenoprpfenCa
>formula C15H14O3 
>ionization [M+H]+
>parentmass 243.101
#inchi InChI=1S/C15H14O3/c1-11(15(16)17)12-6-5-9-14(10-12)18-13-7-3-2-4-8-13/h2-11H,1H3,(H,16,17)
#inchikey RDJGLLICXDHJDY
#Ion_Source LC-ESI
#Instrument qTof
#Compound_Source Isolated
#PI Sirenas
#Data_Collector Ed Esquenazi 
#Scan -1
#Precursor_MZ 243.101
#ExactMass 0.0
#Charge 1
#CAS_Number N/A
#Pubmed_ID N/A
#Smiles N/A
#INCHI_AUX N/A
#Library_Class 3
#SpectrumID CCMSLIB00000005469
#IonMode Positive
#UpdateWorkflowName UPDATE-SINGLE-ANNOTATED-BRONZE
#LibraryQualityString Bronze
#TaskID d19310cd93df49b68e9fcbec27720eb5
##Scan# 3
#SpectrumFile FenoprpfenCa.mgf
#LibraryName fda_library.mgf
#MQScore -1
#Organism fda_library
#TIC_Query 0
#RT_Query -1
#MZErrorPPM -1
#SharedPeaks 0
#MassDiff 0
#LibMZ -1
#SpecMZ 243.101
#SpecCharge 0
#internalFilename spec-00000.mgf

>collision 10
101.037605 43.706161
101.162445 4.714286
102.047356 66.2285
102.257362 22.585421
102.517654 4.666667
102.563499 14.04012
102.609375 2.027778
102.640976 3.355392
102.689621 46.661579
102.711311 4.440476
102.789352 8.081897
102.911125 12.44231
103.054108 5394.345215
103.09726 47.181549
103.128792 23.530161
103.156204 6.694445
103.163269 19.34091
103.173874 17.77137
103.201965 11.14286
103.240822 19.54343
103.261604 25.00091
103.277176 17.17926
103.290794 97.016098
103.336487 11.54167
103.347191 3.125
103.389534 5.668011
103.416069 14.95833
103.422165 36.271191
103.451584 24.01829
103.483261 25.34964
103.509842 23.0
103.523911 39.36311
103.545235 5.351191
103.552032 2.083333
103.561623 9.041667
103.576241 15.88095
103.602203 37.609249
103.634094 28.960779
103.680496 9.306159
103.69046 21.74951
103.708145 5.742284
103.71653 33.36945
103.740868 17.016081
103.86763 13.61111
103.903091 3.375
103.995415 4.107143
104.061752 12655.379883
104.105934 29.93704
104.11792 77.418472
104.148071 25.29933
104.171425 51.464951
104.184303 36.087299
104.194092 8.601191
104.207184 33.915081
104.215057 30.274639
104.223869 26.89352
104.246155 56.37915
104.268654 3.695513
104.27578 8.027778
104.3116 44.562012
104.332809 11.11638
104.344658 35.742371
104.362015 18.199471
104.379616 26.133329
104.399078 41.271278
104.447159 7.386905
104.461311 15.60562
104.468681 43.180061
104.486267 11.48761
104.499115 37.087639
104.549683 20.23864
104.575729 13.74167
104.593102 11.29419
104.649109 11.72727
104.663025 36.697239
104.916191 7.0
105.03463 51.99086
105.161415 19.907049
105.265694 3.0
106.37149 6.668333
107.32444 3.355392
109.993744 2.816667
115.054436 442.690094
115.084167 6.136111
115.100975 2.35
115.201797 4.481482
115.213257 15.95833
115.408211 9.556818
116.043442 3.727941
117.067856 129.973694
117.11396 4.002193
117.150864 5.963235
117.209702 8.881667
118.71682 3.266667
119.026703 8.403508
119.048203 936.935608
119.095024 4.335784
119.211067 16.523809
119.235481 5.345238
119.277328 8.086538
119.35479 5.428572
119.452332 4.531863
119.535835 11.68981
119.592888 12.33333
119.646973 5.265351
119.851425 10.3649
120.450607 3.490385
120.480972 3.025
120.893738 14.04025
121.02813 6.371212
121.062431 258.778595
121.457481 8.481667
121.542953 13.33333
127.053627 152.837006
127.444908 23.44858
128.061096 715.81311
128.090103 5.157052
128.109131 7.0
128.292587 7.84375
128.367783 3.854167
128.436157 8.881579
128.696793 12.92525
129.382675 12.85688
130.415054 6.669117
131.048096 510.52301
131.123367 11.1875
131.241837 25.9881
131.418137 4.427083
132.192932 8.676282
132.264938 4.703703
139.055252 9.337963
141.069809 1215.338989
141.121719 5.505952
141.134918 2.347222
141.172241 2.053571
141.21759 3.703704
141.411957 2.333333
141.49057 11.36111
141.51564 24.43803
141.790344 22.27244
142.095383 7.677381
143.081665 62.245369
145.064438 20.597639
151.053787 250.844803
151.758957 4.5
152.060257 670.465393
152.097916 4.34375
152.115845 1.680555
152.166626 8.647059
152.24437 3.185606
152.3255 2.083333
152.471573 19.408331
152.574524 4.358333
152.725296 10.49662
153.068741 1284.083008
153.142654 12.8642
153.269302 4.5
153.383453 8.343469
153.553238 6.25926
154.076813 1412.380005
154.13327 5.932018
154.185898 19.38542
154.216125 14.02419
154.345764 9.240384
154.557953 26.659941
154.596542 16.23315
154.613846 12.02815
154.657867 14.22222
154.728104 13.59524
154.775055 7.935
155.016083 9.969087
155.084885 10.82738
155.497559 8.68254
157.058899 7.160257
157.071457 8.133333
157.875198 9.693376
163.057526 13.33772
163.903473 15.55408
164.060532 70.202477
165.068161 292.116394
165.178665 12.58671
167.084549 431.931488
167.140015 13.53796
168.036224 10.54688
168.056747 58.834019
168.124802 17.682541
169.716568 8.41565
176.061371 243.971802
176.112488 6.59375
177.06955 187.477997
177.12413 22.46574
177.222961 12.29412
177.314011 5.668011
177.346436 6.049603
177.402039 24.336109
177.811554 7.653986
178.077011 3809.387939
178.134903 4.001984
178.153427 14.225
178.223129 9.005952
178.240814 9.09375
178.26564 4.013889
178.290634 24.055269
178.320007 6.740942
178.339264 5.675
178.372513 3.555556
178.457779 28.264709
178.478638 14.04748
178.557678 6.346264
178.613464 8.686275
178.627975 3.367424
178.669266 2.347222
178.725067 11.349
179.310181 14.15188
179.36586 24.003969
179.88092 10.29167
179.951767 20.82649
179.974762 23.76182
180.056641 44.38974
180.144287 2.416667
180.229492 23.92708
180.286011 5.469444
180.534149 8.356482
180.698151 33.9356
180.749207 8.449713
181.011108 19.820181
181.06395 4074.51001
181.104584 23.5
181.120605 32.974491
181.142258 3.802778
181.165848 10.4422
181.245361 19.637119
181.278122 16.003469
181.30249 5.75
181.322647 5.25
181.343719 11.88
181.403915 4.733333
181.446808 13.06812
181.4841 17.04344
181.535843 9.405142
181.561386 18.64329
181.619431 20.926279
181.641403 20.734831
181.66243 13.9679
181.676498 14.45343
181.686539 3.027778
181.814255 21.90645
181.904358 5.724359
182.197418 9.673612
182.251648 31.40959
182.357056 10.76179
182.902405 15.40054
182.954163 11.025
183.109482 7.018518
183.509872 20.386749
195.077255 51.005051
196.085068 88.527367
197.091965 108.089996
323.644012 22.054489
347.553955 8.136261
569.56134 17.45192
1335.133545 3.013889
1446.586548 24.775
1576.962891 4.033333
