>compound Diethylstilbestrol (Stilbestrol)
>formula C18H20O2
>ionization [M+H]+
>parentmass 269.154
#inchi InChI=1S/C18H20O2/c1-3-17(13-5-9-15(19)10-6-13)18(4-2)14-7-11-16(20)12-8-14/h5-12,19-20H,3-4H2,1-2H3/b18-17+
#inchikey RGLYKWWBQGJZGM
#Ion_Source LC-ESI
#Instrument qTof
#Compound_Source Commercial
#PI Dorrestein
#Data_Collector Garg_Neha
#Scan -1
#Precursor_MZ 269.154
#ExactMass 268.146
#Charge 1
#CAS_Number 56-53-1
#Pubmed_ID N/A
#Smiles C1(=CC=C(C=C1)/C(=C(/C2=CC=C(C=C2)O)CC)CC)O
#INCHI_AUX N/A
#Library_Class 1
#SpectrumID CCMSLIB00000078320
#IonMode Positive
#UpdateWorkflowName UPDATE-SINGLE-ANNOTATED-GOLD
#LibraryQualityString Gold
#TaskID 77f51c88eb8b467eb4a01dd2d0cb90d2
##Scan# 1628
#SpectrumFile Plate5_21_40_GH7_01_16509.mzXML
#LibraryName FDALibrary_2_04302014.mgf
#MQScore -1
#Organism FDALibrary_2_04302014
#TIC_Query 0
#RT_Query -1
#MZErrorPPM -1
#SharedPeaks 0
#MassDiff 0
#LibMZ -1
#SpecMZ 269.154
#SpecCharge 0
#internalFilename spec-00000.mgf

>collision 10
45.42757 220.0
46.263081 180.0
47.542973 244.0
50.386578 216.0
50.543518 148.0
51.126747 180.0
55.960659 212.0
56.982182 224.0
58.826801 208.0
58.913845 164.0
60.550484 172.0
61.174675 184.0
65.517586 160.0
67.114029 188.0
67.180893 152.0
68.25695 208.0
71.696419 184.0
71.944366 192.0
72.27224 176.0
74.407875 196.0
78.70356 152.0
91.886017 148.0
91.95089 216.0
92.239304 148.0
97.042702 152.0
98.516777 200.0
100.003952 240.0
100.629898 140.0
101.323891 180.0
101.512299 176.0
102.688782 156.0
103.050117 160.0
103.20575 164.0
107.049019 1756.0
107.199928 96.0
107.987183 160.0
108.051498 532.0
108.818146 148.0
109.052879 184.0
109.608528 152.0
111.084564 196.0
111.101349 204.0
112.769066 220.0
115.049355 148.0
116.103165 180.0
121.065346 1088.0
122.326424 176.0
122.921494 168.0
123.117966 148.0
124.264572 204.0
126.164291 196.0
127.911797 188.0
128.062653 208.0
131.047241 304.0
131.826492 252.0
133.061813 276.0
133.08403 168.0
134.689194 184.0
135.048615 304.0
135.079514 4400.0
136.082504 752.0
136.20784 204.0
139.691727 176.0
140.103683 216.0
141.071243 176.0
144.113297 140.0
145.692139 180.0
151.057022 204.0
153.066788 336.0
157.059692 164.0
159.079056 144.0
159.976486 176.0
160.089783 180.0
163.108154 144.0
175.11055 124.0
177.000198 124.0
180.532455 192.0
181.063507 652.0
181.49913 184.0
182.067825 216.0
184.049957 140.0
187.661362 152.0
195.242447 156.0
197.061218 156.0
198.058578 192.0
199.073486 3400.0
200.076309 580.0
201.081451 188.0
203.104095 140.0
203.776886 200.0
205.03746 232.0
207.891541 172.0
209.068268 188.0
211.940109 152.0
212.082108 216.0
213.087799 164.0
225.08345 132.0
227.106476 152.0
239.110321 208.0
239.407547 176.0
240.111496 228.0
241.119736 168.0
245.958817 172.0
268.042816 172.0
268.14505 224.0
268.190063 148.0
268.228577 152.0
269.10614 148.0
269.149963 1568.0
270.154083 424.0
271.157135 168.0
292.72525 140.0
391.791138 144.0
1245.260986 140.0
1271.070679 144.0
1377.163574 224.0
1402.613892 160.0
1482.515381 168.0
1532.791626 176.0
1551.902466 164.0
1649.960449 148.0
1673.838745 160.0
1708.870972 160.0
1718.296143 164.0
1735.673462 184.0
1758.801025 184.0
1821.126831 212.0
1823.616211 156.0
1853.227783 168.0
1887.078613 196.0
1887.545532 208.0
1887.856812 228.0
1892.468872 152.0
1961.636353 184.0
1980.483765 240.0
1981.458252 164.0
1994.769653 160.0
