>compound Dyphylline (Dilor)
>formula C10H14N4O4
>ionization [M+H]+
>parentmass 255.108719
#inchi InChI=1S/C10H14N4O4/c1-12-8-7(9(17)13(2)10(12)18)14(5-11-8)3-6(16)4-15/h5-6,15-16H,3-4H2,1-2H3
#inchikey KSCFJBIXMNOVSH
#Ion_Source LC-ESI
#Instrument qTof
#Compound_Source Commercial
#PI Dorrestein
#Data_Collector Garg_Neha
#Scan -1
#Precursor_MZ 255.109
#ExactMass 254.102
#Charge 1
#CAS_Number 479-18-5, 52756-53-3, 68350-70-9
#Pubmed_ID N/A
#Smiles N1(C(N(C2=C(C1=O)N(C=N2)CC(CO)O)C)=O)C
#INCHI_AUX N/A
#Library_Class 1
#SpectrumID CCMSLIB00000078168
#IonMode Positive
#UpdateWorkflowName UPDATE-SINGLE-ANNOTATED-GOLD
#LibraryQualityString Gold
#TaskID 77f51c88eb8b467eb4a01dd2d0cb90d2
##Scan# 1002
#SpectrumFile Plate3_1_20_GG9_01_16498.mzXML
#LibraryName FDALibrary_2_04302014.mgf
#MQScore -1
#Organism FDALibrary_2_04302014
#TIC_Query 0
#RT_Query -1
#MZErrorPPM -1
#SharedPeaks 0
#MassDiff 0
#LibMZ -1
#SpecMZ 255.109
#SpecCharge 0
#internalFilename spec-00000.mgf

>collision 10
49.343315 180.0
54.57679 164.0
54.690067 168.0
54.981888 212.0
56.237507 148.0
57.448456 168.0
58.48341 192.0
59.842823 148.0
62.628971 172.0
63.776123 176.0
65.3433 156.0
66.30246 244.0
66.742378 192.0
68.077431 184.0
68.315758 164.0
69.472145 148.0
69.521919 260.0
70.032326 148.0
70.364166 228.0
72.153458 208.0
72.542824 148.0
74.861427 148.0
75.627701 152.0
78.392731 164.0
79.627579 236.0
81.938744 156.0
82.836594 168.0
82.874641 176.0
82.961632 156.0
84.716576 188.0
86.745514 156.0
87.341576 208.0
87.507202 208.0
90.687675 176.0
91.02916 212.0
94.537369 164.0
94.657394 172.0
96.054787 212.0
97.061996 372.0
99.00106 180.0
100.969299 160.0
101.505997 168.0
103.470512 208.0
106.072006 232.0
106.979973 148.0
107.187988 240.0
109.035995 188.0
111.185036 168.0
119.818733 160.0
121.044052 184.0
121.420982 212.0
124.050919 4996.0
125.053391 352.0
130.9617 156.0
133.088501 152.0
135.16301 200.0
136.071579 168.0
136.08783 192.0
137.082596 424.0
139.078339 196.0
142.065765 148.0
148.160065 176.0
151.980621 208.0
153.259201 176.0
154.101685 276.0
154.746094 196.0
157.082169 140.0
158.121597 220.0
158.966141 144.0
159.687149 148.0
162.661133 236.0
163.098038 184.0
165.355301 160.0
165.388565 176.0
167.463196 164.0
169.136337 144.0
170.087631 172.0
173.028198 160.0
176.657318 180.0
179.870041 196.0
180.433701 240.0
180.733261 168.0
180.781418 208.0
180.920609 224.0
180.992889 188.0
181.016983 360.0
181.071686 15724.0
182.076706 792.0
183.077728 208.0
183.611282 152.0
185.334961 140.0
187.105804 156.0
188.308334 192.0
188.578827 160.0
188.947983 176.0
189.427048 204.0
192.068665 180.0
193.07019 208.0
193.871323 212.0
194.936935 156.0
197.958054 180.0
198.08699 276.0
199.296066 208.0
203.50174 176.0
211.349854 144.0
211.992691 140.0
215.093079 140.0
216.069122 172.0
216.569687 176.0
218.145416 192.0
219.084702 176.0
219.732758 188.0
220.349792 208.0
221.109741 168.0
222.360428 144.0
224.46965 180.0
225.520508 164.0
225.756699 256.0
232.644669 144.0
233.918381 184.0
234.731857 168.0
235.094864 144.0
235.168106 192.0
237.098282 356.0
238.131897 144.0
239.151382 144.0
240.836166 160.0
245.538315 180.0
252.956863 192.0
253.134171 144.0
254.173874 152.0
254.589722 200.0
254.818436 156.0
255.057281 148.0
255.108719 17916.0
255.154221 484.0
256.109467 1308.0
256.265198 332.0
257.11319 424.0
257.244293 340.0
257.829651 148.0
258.050903 148.0
258.251678 376.0
275.283539 248.0
1311.840942 152.0
1363.272461 208.0
1460.471558 160.0
1525.777344 216.0
1556.08313 200.0
1583.778564 152.0
1682.253174 172.0
1731.589355 152.0
1786.80896 180.0
1802.711304 180.0
1832.775757 228.0
1844.348022 184.0
1866.922363 184.0
1898.000854 184.0
1908.655029 172.0
1945.305908 168.0
1945.77124 160.0
1950.084229 224.0
1963.581299 196.0
