>compound Erythromycin
>formula C37H67NO13 
>ionization [M+H]+
>parentmass 734.4685176560905
#inchi InChI=1S/C37H67NO13/c1-14-25-37(10,45)30(41)20(4)27(39)18(2)16-35(8,44)32(51-34-28(40)24(38(11)12)15-19(3)47-34)21(5)29(22(6)33(43)49-25)50-26-17-36(9,46-13)31(42)23(7)48-26/h18-26,28-32,34,40-42,44-45H,14-17H2,1-13H3/t18-,19-,20+,21+,22-,23+,24+,25-,26+,28-,29+,30-,31+,32-,34+,35-,36-,37-/m1/s1
#inchikey ULGZDMOVFRHVEP
#Ion_Source LC-ESI
#Instrument qTof
#Compound_Source Isolated
#PI Sirenas
#Data_Collector Ed Esquenazi 
#Scan -1
#Precursor_MZ 734.469
#ExactMass 0.0
#Charge 1
#CAS_Number N/A
#Pubmed_ID N/A
#Smiles N/A
#INCHI_AUX N/A
#Library_Class 3
#SpectrumID CCMSLIB00000006291
#IonMode Positive
#UpdateWorkflowName UPDATE-SINGLE-ANNOTATED-BRONZE
#LibraryQualityString Bronze
#TaskID d19310cd93df49b68e9fcbec27720eb5
##Scan# 8
#SpectrumFile Erythromycin.mgf
#LibraryName fda_library.mgf
#MQScore -1
#Organism fda_library
#TIC_Query 0
#RT_Query -1
#MZErrorPPM -1
#SharedPeaks 0
#MassDiff 0
#LibMZ -1
#SpecMZ 734.469
#SpecCharge 0
#internalFilename spec-00000.mgf

>collision 10
104.044868 23.827881
109.067642 42.846989
113.057274 43.9133
115.074921 369.497314
115.88105 15.29587
116.06955 157.0065
116.106842 796.630981
123.080254 20.49073
125.058189 32.018291
126.333717 12.75763
127.074913 425.810303
144.104126 39.19165
153.089508 13.2002
158.116943 6531.812988
158.170624 53.128231
158.235764 18.038071
158.268234 56.544991
158.279572 11.05356
158.316147 33.298012
158.330154 10.59304
158.346664 17.283859
158.372467 21.55147
158.389008 17.83448
158.410477 16.26067
158.434204 14.64259
158.475723 10.4125
158.482773 11.33936
158.510956 17.44569
158.558899 15.09524
158.574295 22.509439
158.591232 11.13785
158.616959 10.44331
159.099884 31.92853
176.12648 52.49892
193.117203 10.33761
195.133484 38.691471
233.152802 45.879181
269.168274 18.841909
284.185883 14.7555
286.199707 11.80628
289.170776 37.114441
314.615204 10.20937
316.211121 239.550507
316.81485 10.74701
325.200409 64.732193
331.230255 20.010969
342.224091 47.16914
364.913269 14.4193
365.226257 67.82489
367.240021 22.246679
380.741425 14.72248
383.236847 53.852989
408.250153 15.54145
408.273315 52.773472
444.283325 25.738689
482.304749 28.102671
500.31665 53.034611
522.340332 712.812378
522.674927 29.496321
523.451355 10.59233
540.353882 542.969421
540.547974 14.72888
541.191467 12.98338
558.303406 23.539021
558.362122 1419.300049
558.430969 14.8721
558.505737 12.13333
558.577942 30.196529
559.145142 30.252741
559.386047 41.875431
559.481506 18.255079
559.557739 12.35148
572.480042 28.233589
572.605774 14.2125
572.934326 14.13107
573.56842 13.01841
576.187805 10.53653
576.373291 5330.753906
576.498596 22.57295
576.543335 36.330681
576.591492 55.183842
576.639587 27.128241
576.694031 41.05262
576.748718 54.06617
576.787354 17.70994
576.825073 69.230507
576.866516 20.067129
576.904175 39.70853
576.956299 11.50755
576.993286 38.786098
577.264099 29.660179
577.472717 31.61368
578.040833 14.90106
578.644348 12.49091
614.764648 13.97524
698.443298 305.359802
716.455261 490.37439
716.655701 26.16324
729.625671 10.46885
729.669922 39.84185
730.05719 19.36915
730.265869 21.19062
734.466492 2355.207031
734.554077 39.860001
734.670227 12.42893
734.741394 20.932409
734.86853 15.73729
734.923035 22.926371
735.162354 38.50893
735.805481 11.73319
735.979248 10.48811
736.083252 16.64267
