>compound Sulfamethoxazole
>formula C10H11N3O3S 
>ionization [M+H]+
>parentmass 254.06
#inchi InChI=1S/C10H11N3O3S/c1-7-6-10(12-16-7)13-17(14,15)9-4-2-8(11)3-5-9/h2-6H,11H2,1H3,(H,12,13)
#inchikey JLKIGFTWXXRPMT
#Ion_Source LC-ESI
#Instrument qTof
#Compound_Source Isolated
#PI Sirenas
#Data_Collector Ed Esquenazi 
#Scan -1
#Precursor_MZ 254.06
#ExactMass 0.0
#Charge 1
#CAS_Number N/A
#Pubmed_ID N/A
#Smiles N/A
#INCHI_AUX N/A
#Library_Class 3
#SpectrumID CCMSLIB00000005388
#IonMode Positive
#UpdateWorkflowName UPDATE-SINGLE-ANNOTATED-BRONZE
#LibraryQualityString Bronze
#TaskID d19310cd93df49b68e9fcbec27720eb5
##Scan# 3
#SpectrumFile Sulfamethoxazole.mgf
#LibraryName fda_library.mgf
#MQScore -1
#Organism fda_library
#TIC_Query 0
#RT_Query -1
#MZErrorPPM -1
#SharedPeaks 0
#MassDiff 0
#LibMZ -1
#SpecMZ 254.06
#SpecCharge 0
#internalFilename spec-00000.mgf

>collision 10
100.052406 37.273491
100.058899 30.14399
100.19986 6.366667
101.80732 9.63362
102.031868 125.279198
103.040443 123.202202
103.747932 4.340278
104.047562 138.952606
104.237503 14.42178
105.043869 440.641815
105.073875 7.668333
105.302208 5.682971
106.053635 224.581604
106.061836 149.256104
106.175964 7.291667
106.225266 12.69089
106.253181 4.185606
106.390266 8.00641
106.476402 3.025
106.53849 3.666667
106.708351 14.02778
106.73143 10.04748
106.810516 5.001812
106.943588 4.734848
107.045204 27.016569
107.06044 2091.475098
107.103363 21.274719
107.164787 7.177083
107.213882 13.88741
107.239502 25.85405
107.273499 7.190476
107.30365 7.455883
107.382675 7.583333
107.425591 10.81855
107.443596 27.89855
107.451729 14.56199
107.459236 3.555556
107.468872 54.134869
107.501923 19.03047
107.509262 86.196877
107.515762 29.494049
107.525276 31.104759
107.537331 10.8
107.546707 16.013889
107.587822 35.666672
107.609009 19.37677
107.625626 22.96023
107.654686 10.225
107.661469 69.373154
107.67907 40.199699
107.693161 8.148809
107.702126 21.646299
107.722855 37.220589
107.754921 10.63575
107.766617 11.09339
107.780647 7.966667
107.793671 20.136259
107.854149 22.38278
107.877411 17.951481
107.895485 11.42818
107.917389 95.355766
107.92923 23.26239
107.980408 2.541667
108.018372 13.43678
108.044693 57720.410156
108.102104 13.23
108.144958 12.02042
108.201706 40.985481
108.250557 45.50293
108.268028 8.906863
108.280533 56.870831
108.291939 21.181459
108.317329 36.446758
108.350304 36.23848
108.377121 44.273811
108.395088 57.944801
108.402931 24.517031
108.429726 86.415756
108.455376 9.083333
108.466171 63.54591
108.492165 67.038834
108.534035 67.395927
108.543282 5.333333
108.551361 13.68397
108.560905 24.643909
108.572548 70.065964
108.593727 17.054819
108.615494 46.421452
108.636467 42.800179
108.648163 12.44817
108.680534 4.694444
108.715508 5.916667
108.735962 4.963235
108.743744 19.777781
108.752098 10.86111
108.800766 8.671053
108.809845 14.69229
108.829811 10.64015
108.837433 11.63516
108.851028 17.57576
108.863014 28.80357
108.978943 6.672619
109.047691 608.115112
109.102501 15.73374
109.156876 7.703703
109.169884 8.592949
109.233017 8.334523
109.476723 21.67593
109.500931 24.644779
109.629494 10.14881
109.649048 16.615391
109.65744 5.469444
109.720779 7.716667
109.775444 9.075
109.7882 3.583333
109.837593 3.490385
109.903053 14.00475
110.404175 9.444445
110.501991 9.405142
110.619049 11.75833
111.156464 3.802778
112.397125 17.13611
115.101891 9.053572
116.048134 166.091705
116.246574 5.680555
116.295738 14.58333
117.056152 97.868568
117.325783 4.0
118.052498 540.88092
118.215591 9.974359
118.239471 5.720238
118.512352 7.041667
118.724487 5.166667
119.059555 787.705322
119.107338 6.391026
119.336449 9.895833
119.491158 5.494048
119.591034 22.698721
120.520592 18.783911
120.964027 2.4
121.075256 164.088501
121.518967 8.240196
122.00209 65.354156
122.229622 8.49359
122.907333 15.43803
123.002579 81.592628
124.021339 46.431641
128.048264 20.7451
128.44957 21.30854
129.041901 49.734119
129.058014 13.875
129.247589 4.592948
129.468216 8.095239
129.971451 8.753205
130.052597 174.649094
131.008667 14.42157
131.059875 332.417389
131.350616 17.04545
131.470978 14.72803
131.786224 9.138888
131.934097 9.094697
131.990662 18.51894
132.050369 43.449081
132.066925 501.954895
132.13797 9.599999
132.486664 14.5787
133.06366 294.203705
133.076828 136.097
133.093338 3.625
133.19516 5.225
133.219055 6.370614
133.384598 9.005952
133.869507 7.55147
134.068848 93.70771
134.141022 8.41565
134.834946 12.40221
140.014648 64.226921
140.234039 16.53125
140.681747 12.33969
141.310211 4.963235
141.706924 7.688889
142.052414 27.483971
142.469955 8.086538
142.645065 5.296568
143.059601 749.548401
143.136551 23.741871
143.222397 17.696671
143.401611 18.35606
143.555801 5.0625
143.660049 24.861719
144.065979 71.701553
144.152481 12.68003
144.240219 16.69253
144.687607 8.6875
145.075836 86.089203
145.160873 7.560484
145.274048 6.095238
145.389816 6.25926
145.437836 26.966961
145.504211 6.265351
146.070923 2305.144043
146.120544 31.748739
146.144501 5.708333
146.179184 4.741667
146.206406 7.041667
146.235855 11.00379
146.270279 10.91204
146.303299 4.166667
146.322357 23.05529
146.34874 20.258329
146.505829 12.7963
146.550919 25.56118
146.644226 13.46596
146.749557 6.364899
147.078629 1574.817017
147.175293 10.34405
147.187134 4.297619
147.209976 15.82036
147.310638 9.371913
147.386749 23.61335
147.445755 10.20833
147.617447 9.107142
147.686691 6.564103
148.499908 15.73563
149.162064 3.341666
150.028702 32.200489
155.020096 35.760422
155.164612 3.672619
156.010605 349.9711
156.193436 8.909483
156.276291 5.061275
156.367599 7.666667
156.633286 3.490385
158.742615 6.700758
159.056198 158.925705
159.0793 221.065002
159.243225 7.605556
160.087158 1286.884033
160.125702 6.231482
160.139999 9.715278
160.19548 11.19048
160.241394 5.003788
160.273117 12.615
160.294128 3.002451
160.31279 9.711021
160.338165 18.569441
160.430695 10.69253
160.480896 5.840278
160.668732 9.001437
160.686615 19.023149
160.778992 10.20833
160.977676 10.41667
161.000671 45.1381
161.123245 4.002193
161.211578 7.66821
161.268997 6.399193
161.808441 12.00798
170.203156 3.677083
172.047653 72.526131
172.078064 5.148148
172.576279 3.080128
173.056213 33.060001
175.026779 4.777778
175.360672 7.047619
176.024216 56.774078
176.473251 7.340278
187.440002 7.190217
212.876862 5.480072
229.582748 5.840278
249.709869 6.713542
254.636429 15.54519
259.186523 8.357558
781.755493 3.520833
865.050537 6.364899
1321.537231 6.125
1468.948608 13.0
1535.186157 6.358974
1557.745483 6.668011
1656.049561 3.0
