>compound MLS000028687-01!FLUDARABINE
>formula C10H12FN5O4
>ionization [M+H]+
>parentmass 286.094
#inchi InChI=1S/C10H12FN5O4/c11-10-14-7(12)4-8(15-10)16(2-13-4)9-6(19)5(18)3(1-17)20-9/h2-3,5-6,9,17-19H,1H2,(H2,12,14,15)/t3-,5-,6+,9-/m1/s1
#inchikey HBUBKKRHXORPQB
#Ion_Source LC-ESI
#Instrument qTof
#Compound_Source NIH Pharmacologically Active Library
#PI Dorrestein
#Data_Collector VP/LMS
#Scan -1
#Precursor_MZ 286.094
#ExactMass 285.087
#Charge 1
#CAS_Number N/A
#Pubmed_ID N/A
#Smiles Nc1nc(F)nc2n(cnc12)[C@@H]3O[C@H](CO)[C@@H](O)[C@@H]3O
#INCHI_AUX N/A
#Library_Class 1
#SpectrumID CCMSLIB00000085190
#IonMode Positive
#UpdateWorkflowName UPDATE-SINGLE-ANNOTATED-GOLD
#LibraryQualityString Gold
#TaskID d252d724072548979f1f6f1ced849daf
##Scan# 1102
#SpectrumFile p3-F10_GF10_01_18291.mzXML
#LibraryName Pharm_Active_Library.mgf
#MQScore -1
#Organism Pharm_Active_Library
#TIC_Query 0
#RT_Query -1
#MZErrorPPM -1
#SharedPeaks 0
#MassDiff 0
#LibMZ -1
#SpecMZ 286.094
#SpecCharge 0
#internalFilename spec-00000.mgf

>collision 10
46.221413 184.0
47.920185 164.0
48.31369 172.0
48.913227 168.0
49.632782 144.0
49.991013 232.0
50.261585 176.0
50.890091 204.0
51.644012 68.0
52.051052 204.0
53.329712 200.0
53.502827 148.0
53.617908 248.0
53.846981 164.0
53.896652 136.0
54.578293 216.0
55.738735 36.0
55.787785 144.0
56.559055 244.0
57.785637 268.0
57.990086 192.0
58.371162 188.0
58.552269 112.0
58.710777 168.0
58.803848 80.0
60.483986 180.0
60.911987 96.0
61.047215 236.0
61.57869 148.0
61.680256 92.0
61.838245 76.0
62.968769 112.0
63.069897 164.0
63.543427 140.0
63.894566 216.0
64.713379 180.0
65.271057 148.0
65.98613 236.0
66.147919 168.0
71.167488 240.0
71.190994 184.0
71.248108 56.0
72.039948 168.0
72.832764 112.0
73.934242 200.0
74.211456 112.0
75.332222 148.0
76.466301 124.0
76.518524 172.0
76.814804 136.0
76.90554 56.0
77.008568 100.0
77.679001 52.0
80.407661 160.0
81.498291 112.0
81.6493 120.0
82.784515 248.0
84.362106 176.0
85.978584 200.0
89.210548 52.0
90.628006 76.0
91.414169 212.0
92.856628 120.0
93.03125 112.0
94.51152 116.0
94.538612 200.0
94.993958 196.0
95.197762 240.0
96.368507 132.0
96.708794 200.0
97.063408 140.0
97.501198 80.0
97.788361 52.0
98.127197 208.0
98.620743 280.0
98.774979 136.0
100.629257 120.0
101.229149 136.0
101.730423 240.0
101.776604 212.0
102.166534 156.0
102.839607 128.0
104.77018 200.0
104.829269 116.0
106.696083 112.0
106.897667 136.0
107.034042 368.0
107.697632 160.0
108.401085 208.0
109.491798 160.0
110.62146 120.0
110.885391 140.0
111.107674 44.0
111.365883 136.0
112.481926 180.0
112.69101 176.0
113.707512 192.0
116.556496 124.0
117.077103 140.0
117.255928 180.0
117.570816 148.0
117.730576 148.0
117.901253 144.0
118.143433 204.0
120.035324 176.0
120.957344 144.0
123.244698 240.0
124.165634 184.0
124.76297 164.0
126.263695 212.0
126.935562 192.0
127.137466 132.0
129.050018 248.0
130.226196 116.0
131.25946 196.0
132.553329 84.0
133.890396 232.0
133.968704 144.0
133.989441 60.0
134.044342 5508.0
134.432175 60.0
135.046539 432.0
135.134659 60.0
135.303619 76.0
135.727646 140.0
136.168579 176.0
136.263824 212.0
136.749863 52.0
137.540054 68.0
137.799286 132.0
138.871475 116.0
139.275208 192.0
139.632492 36.0
142.664017 228.0
143.492554 88.0
143.98175 212.0
146.014175 232.0
147.905899 216.0
148.254684 140.0
152.044754 140.0
152.064392 184.0
152.346786 52.0
153.88118 136.0
153.99971 76.0
154.051041 11472.0
154.097214 60.0
154.208694 76.0
154.323456 48.0
154.454529 100.0
154.630219 52.0
154.907547 28.0
154.931396 64.0
154.974442 144.0
155.05275 1172.0
155.095886 80.0
156.051697 120.0
171.097641 176.0
176.048431 176.0
188.512878 56.0
196.055679 160.0
210.079391 148.0
214.691452 92.0
222.100723 128.0
246.896469 176.0
249.829346 108.0
257.146332 124.0
257.944885 56.0
257.983246 112.0
291.167328 100.0
659.358826 156.0
801.624817 116.0
845.136108 120.0
901.263245 40.0
925.353638 156.0
938.874512 132.0
975.544189 184.0
1037.593018 148.0
1053.631836 48.0
1054.426636 140.0
1058.437622 148.0
1117.200317 124.0
1126.433472 92.0
1129.194092 216.0
1135.221802 136.0
1189.12854 56.0
1201.666992 52.0
1202.798828 160.0
1205.27832 84.0
1229.640991 84.0
1234.40564 176.0
1240.875732 120.0
1250.880127 232.0
1254.494141 192.0
1255.572998 224.0
1259.433838 132.0
1279.53186 244.0
1304.680298 204.0
1316.201538 148.0
1321.717041 184.0
1339.199341 80.0
1347.75708 196.0
1352.430298 156.0
1393.442261 196.0
1418.788696 100.0
1450.186523 168.0
1453.614624 196.0
1454.669678 180.0
1463.907959 136.0
1464.585815 148.0
1470.716431 216.0
1479.691528 192.0
