>compound MLS002207059-01!7-Methoxy-4-methylcoumarin2555-28-4
>formula C11H10O3
>ionization [M+H]+
>parentmass 191.069809
#inchi InChI=1S/C11H10O3/c1-7-5-11(12)14-10-6-8(13-2)3-4-9(7)10/h3-6H,1-2H3
#inchikey UDFPKNSWSYBIHO
#Ion_Source LC-ESI
#Instrument qTof
#Compound_Source NIH Pharmacologically Active Library
#PI Dorrestein
#Data_Collector VP/LMS
#Scan -1
#Precursor_MZ 191.07
#ExactMass 190.063
#Charge 1
#CAS_Number N/A
#Pubmed_ID N/A
#Smiles COc1ccc2c(C)cc(=O)oc2c1
#INCHI_AUX N/A
#Library_Class 3
#SpectrumID CCMSLIB00000085928
#IonMode Positive
#UpdateWorkflowName UPDATE-SINGLE-ANNOTATED-BRONZE
#LibraryQualityString Bronze
#TaskID d252d724072548979f1f6f1ced849daf
##Scan# 1785
#SpectrumFile p4-H02_GH2_01_18410.mzXML
#LibraryName Pharm_Active_Library.mgf
#MQScore -1
#Organism Pharm_Active_Library
#TIC_Query 0
#RT_Query -1
#MZErrorPPM -1
#SharedPeaks 0
#MassDiff 0
#LibMZ -1
#SpecMZ 191.07
#SpecCharge 0
#internalFilename spec-00000.mgf

>collision 10
44.892109 132.0
45.087994 132.0
45.551971 132.0
45.795444 180.0
46.127388 112.0
47.471275 168.0
47.653839 172.0
47.880817 160.0
49.676773 172.0
50.01403 248.0
52.022755 168.0
52.889122 176.0
53.186275 180.0
53.367878 64.0
53.453701 164.0
53.786003 176.0
54.323051 148.0
54.443413 56.0
54.699253 180.0
54.921761 184.0
55.254147 184.0
55.53413 148.0
55.734547 140.0
56.751057 184.0
57.070881 156.0
57.539471 124.0
57.670898 228.0
57.693573 180.0
58.016041 72.0
58.366772 168.0
58.573757 72.0
59.319489 216.0
59.781811 220.0
60.096012 200.0
60.125484 192.0
60.292282 60.0
60.958675 148.0
60.986649 156.0
61.123508 148.0
61.966694 108.0
62.007439 104.0
62.516289 172.0
62.628075 164.0
65.202583 104.0
65.745331 212.0
66.956413 100.0
67.947014 96.0
70.124954 164.0
70.148285 168.0
70.605797 280.0
71.520226 184.0
73.038071 172.0
73.065292 136.0
73.284927 192.0
74.33828 176.0
75.767731 64.0
76.038246 52.0
76.432732 204.0
76.584198 36.0
77.044731 164.0
77.133858 60.0
77.35952 204.0
79.400017 188.0
79.973907 172.0
80.08252 224.0
80.414162 196.0
80.967407 232.0
81.274963 232.0
82.686028 168.0
82.807335 164.0
83.355225 148.0
83.589806 204.0
83.653503 64.0
83.780983 152.0
84.341217 144.0
84.591827 180.0
84.6138 116.0
85.079475 196.0
86.092209 84.0
86.241867 72.0
87.453087 200.0
88.389961 88.0
88.457344 264.0
88.865906 148.0
88.920326 44.0
89.234039 188.0
89.557724 156.0
89.819733 160.0
89.846146 232.0
90.848831 184.0
90.896271 160.0
90.994972 220.0
91.019653 236.0
91.055237 1284.0
91.078529 180.0
91.706444 184.0
91.998306 244.0
92.027229 188.0
92.061897 204.0
92.769272 84.0
92.868988 108.0
94.040497 140.0
94.045029 176.0
94.150826 120.0
94.742729 248.0
95.049072 128.0
95.305389 192.0
95.369522 148.0
96.09787 236.0
96.304802 160.0
97.592361 148.0
97.889488 68.0
97.97419 140.0
98.926079 164.0
101.039642 148.0
101.881676 224.0
101.947983 144.0
101.992203 144.0
102.044609 128.0
102.060562 196.0
103.054085 2680.0
103.098732 184.0
103.143196 76.0
103.389961 164.0
103.580284 88.0
104.061295 448.0
104.083267 64.0
104.292519 180.0
104.664825 112.0
104.952133 152.0
105.033348 400.0
105.071175 1444.0
105.103081 80.0
105.574966 148.0
105.761154 104.0
106.074562 160.0
106.230415 36.0
106.275551 132.0
106.822052 108.0
107.048309 1432.0
107.417389 84.0
107.677467 124.0
107.803497 164.0
108.055786 192.0
108.281403 260.0
108.39949 188.0
108.78112 168.0
108.990891 120.0
109.192543 64.0
109.456841 160.0
109.577652 200.0
109.840332 72.0
113.044518 220.0
114.893112 228.0
115.053749 1048.0
115.130043 44.0
115.874443 120.0
116.061394 228.0
116.108101 112.0
116.281883 248.0
117.069618 160.0
117.161377 88.0
118.971542 136.0
119.047012 560.0
120.055801 1028.0
120.082375 240.0
120.301712 196.0
120.421806 64.0
120.653442 92.0
121.062332 360.0
121.680977 140.0
121.962173 168.0
121.977562 48.0
122.012733 104.0
123.052658 192.0
123.587547 52.0
124.250694 200.0
124.77195 40.0
124.989922 140.0
125.132378 128.0
125.589226 180.0
126.156418 152.0
126.958023 192.0
127.009605 136.0
128.061554 152.0
128.097595 220.0
128.871445 180.0
129.029648 164.0
129.874344 40.0
130.040024 124.0
130.062668 120.0
130.201172 220.0
130.226166 84.0
131.022339 144.0
131.048965 2312.0
131.492081 48.0
131.576553 92.0
132.055099 732.0
133.028809 360.0
133.062653 304.0
133.7314 68.0
134.069855 168.0
134.173691 108.0
134.526672 120.0
134.561295 48.0
134.884735 64.0
135.041626 188.0
135.079865 2608.0
135.240952 68.0
136.010513 168.0
136.085526 484.0
136.975525 116.0
137.092026 136.0
137.12233 128.0
140.749268 144.0
142.029648 196.0
142.145905 144.0
142.9039 128.0
143.058594 168.0
144.177292 196.0
145.064194 480.0
146.037827 156.0
146.861588 216.0
147.044754 500.0
147.078613 392.0
147.247772 204.0
147.823151 60.0
147.946594 168.0
148.052002 4848.0
148.082199 212.0
148.19606 100.0
148.254211 56.0
148.276031 48.0
148.387543 88.0
148.409363 60.0
148.533051 44.0
148.785431 64.0
149.028305 176.0
149.055695 656.0
149.59256 64.0
149.840088 112.0
149.999374 212.0
150.060989 160.0
150.165176 72.0
150.240799 132.0
150.343277 120.0
151.035706 164.0
155.747849 124.0
158.427048 76.0
160.054535 168.0
160.235947 128.0
161.060883 180.0
162.064514 296.0
162.498825 272.0
163.075256 352.0
164.079742 192.0
175.614487 120.0
175.844025 192.0
176.045898 796.0
176.102783 156.0
176.234879 36.0
176.28772 40.0
177.052032 200.0
177.253616 100.0
177.550537 56.0
178.071854 160.0
178.11322 172.0
178.256699 216.0
188.536072 84.0
190.731506 164.0
191.069809 2416.0
191.100021 236.0
191.598373 44.0
191.631424 104.0
192.071915 344.0
192.735123 80.0
193.080688 172.0
194.094254 140.0
194.11644 260.0
195.458145 112.0
199.575684 80.0
204.379272 80.0
272.218506 116.0
311.946838 84.0
320.693848 68.0
358.536346 56.0
409.558533 52.0
526.329163 84.0
722.577759 216.0
796.656433 192.0
811.959229 176.0
850.252197 164.0
864.87616 152.0
874.637817 44.0
880.368713 160.0
919.240173 144.0
926.738342 60.0
934.309509 52.0
934.808411 140.0
937.195496 220.0
938.365723 88.0
980.564148 88.0
983.801575 184.0
986.106567 108.0
996.766846 196.0
999.552612 168.0
1026.226807 128.0
1044.549927 180.0
1045.521484 140.0
1083.83728 176.0
1086.696167 184.0
1098.551758 160.0
1111.639282 220.0
1116.183105 208.0
1130.28479 192.0
1136.623901 172.0
1140.196655 208.0
1142.395386 40.0
1152.860107 176.0
1161.17395 184.0
1167.360962 184.0
1167.796143 152.0
1168.959595 156.0
1175.371948 180.0
1181.288696 216.0
1192.080811 200.0
1194.26709 140.0
1194.693604 60.0
1199.914062 92.0
1204.282349 196.0
1205.145874 184.0
1207.233521 164.0
1208.997559 60.0
1213.070312 280.0
1213.500244 232.0
1226.507568 184.0
1241.000122 212.0
1242.206421 208.0
1251.272339 144.0
1268.680542 184.0
1278.162598 220.0
1283.512207 196.0
1293.894043 40.0
1295.741943 88.0
1296.910034 152.0
1300.180542 112.0
1300.83374 164.0
1314.097778 156.0
1322.741333 212.0
1333.992676 152.0
1335.497925 144.0
1340.164429 192.0
1343.598511 180.0
1344.058228 100.0
1349.382935 136.0
1349.478027 68.0
1353.832031 128.0
1368.614258 204.0
1372.799805 176.0
1374.990967 112.0
1381.49353 84.0
1383.795166 148.0
1386.217407 152.0
1396.395874 184.0
1402.307617 220.0
1403.142578 144.0
1415.097046 180.0
1415.149414 88.0
1417.613892 172.0
1427.778931 160.0
1432.136719 64.0
1433.538086 236.0
1433.59082 96.0
1435.437866 208.0
1435.739502 32.0
1436.961548 160.0
1438.448242 140.0
1441.620483 172.0
1441.741455 96.0
1456.501099 200.0
1462.84314 72.0
1473.94812 200.0
1479.202393 152.0
1481.109131 116.0
1482.50354 96.0
1483.599731 156.0
1483.791382 172.0
1492.313843 168.0
1503.71521 48.0
