>compound MLS002153851-01!2-(3,4-dihydroxyphenyl)-3,5,7-trihydroxy-4H-chromen-4-one dihydrate117-39-5
>formula C15H10O7
>ionization [M+H]+
>parentmass 303.049011
#inchi InChI=1S/C15H10O7/c16-7-4-10(19)12-11(5-7)22-15(14(21)13(12)20)6-1-2-8(17)9(18)3-6/h1-5,16-19,21H
#inchikey REFJWTPEDVJJIY
#origInchi InChI=1S/C15H10O7.H2O/c16-7-4-10(19)12-11(5-7)22-15(14(21)13(12)20)6-1-2-8(17)9(18)3-6;/h1-5,16-19,21H;1H2
#Ion_Source LC-ESI
#Instrument qTof
#Compound_Source NIH Pharmacologically Active Library
#PI Dorrestein
#Data_Collector VP/LMS
#Scan -1
#Precursor_MZ 303.044
#ExactMass 302.043
#Charge 1
#CAS_Number N/A
#Pubmed_ID N/A
#Smiles Oc1cc(O)c2c(=O)c(O)c(oc2c1)c3ccc(O)c(O)c3.O
#INCHI_AUX N/A
#Library_Class 1
#SpectrumID CCMSLIB00000085337
#IonMode Positive
#UpdateWorkflowName UPDATE-SINGLE-ANNOTATED-GOLD
#LibraryQualityString Gold
#TaskID d252d724072548979f1f6f1ced849daf
##Scan# 1708
#SpectrumFile p3-H06_GH6_01_18311.mzXML
#LibraryName Pharm_Active_Library.mgf
#MQScore -1
#Organism Pharm_Active_Library
#TIC_Query 0
#RT_Query -1
#MZErrorPPM -1
#SharedPeaks 0
#MassDiff 0
#LibMZ -1
#SpecMZ 303.044
#SpecCharge 0
#internalFilename spec-00000.mgf

>collision 10
45.49477 84.0
47.008121 140.0
47.492466 196.0
47.621494 172.0
49.094185 124.0
49.635395 196.0
49.837532 176.0
51.150051 148.0
53.147915 156.0
55.280197 92.0
55.385319 168.0
56.980148 104.0
58.629616 156.0
59.000546 128.0
60.284065 140.0
61.648579 52.0
62.058716 156.0
62.624477 176.0
62.87833 180.0
62.979385 256.0
63.278278 128.0
69.214211 172.0
70.112968 132.0
72.100151 144.0
73.567787 120.0
76.679817 156.0
77.24382 188.0
77.303307 28.0
78.348068 112.0
79.359055 152.0
81.580147 164.0
81.612511 112.0
83.128105 56.0
84.848213 188.0
87.989914 104.0
88.285156 108.0
88.796455 68.0
89.232124 88.0
90.0821 148.0
91.067116 168.0
91.186821 196.0
92.978355 172.0
93.797752 176.0
95.0103 156.0
96.017937 148.0
97.121086 104.0
99.803116 200.0
101.338074 88.0
101.594704 68.0
102.300102 92.0
103.055504 176.0
103.315224 156.0
103.44474 176.0
103.602707 92.0
105.032616 176.0
105.06855 200.0
106.641266 184.0
107.013626 192.0
107.04451 328.0
108.721123 164.0
109.053429 132.0
111.005226 324.0
113.186584 188.0
113.288246 124.0
114.758995 192.0
115.207199 196.0
116.054756 204.0
116.911873 148.0
117.030273 128.0
119.006584 180.0
119.039154 104.0
121.02668 172.0
122.026253 200.0
123.041954 124.0
123.851341 164.0
124.578949 104.0
124.741173 40.0
127.052727 148.0
127.503952 108.0
131.046616 256.0
132.091156 116.0
133.023834 72.0
133.058273 140.0
133.987442 252.0
135.043564 168.0
135.69313 204.0
135.811401 212.0
137.023026 1364.0
137.120453 64.0
137.144455 68.0
137.608002 224.0
138.030945 356.0
139.0336 144.0
139.064117 92.0
139.388214 140.0
139.416412 52.0
139.839752 196.0
143.287735 84.0
144.055939 184.0
145.027481 132.0
145.066193 440.0
145.603317 184.0
146.156235 176.0
147.04068 152.0
147.572128 100.0
149.023087 312.0
151.882843 152.0
152.543396 128.0
152.806549 88.0
152.939438 304.0
153.017151 2752.0
153.055161 132.0
153.183228 36.0
153.486374 44.0
153.594894 120.0
154.016327 336.0
154.667328 56.0
154.805984 120.0
155.047867 760.0
155.212387 68.0
156.041702 156.0
156.0616 124.0
156.65892 52.0
157.05777 136.0
157.217453 100.0
159.038223 332.0
160.045166 164.0
160.915054 68.0
160.97818 208.0
161.059006 112.0
161.177734 100.0
162.13179 164.0
162.474106 160.0
163.039444 256.0
163.068314 160.0
164.476898 60.0
165.017868 544.0
165.440643 144.0
165.614777 160.0
166.018005 208.0
166.055893 180.0
167.554306 92.0
171.045288 172.0
172.914185 100.0
173.024139 132.0
173.057587 904.0
174.067703 92.0
174.227936 124.0
174.895889 196.0
175.035416 88.0
176.048065 124.0
177.053909 200.0
179.033554 452.0
180.09845 40.0
183.041504 532.0
184.035568 136.0
184.053085 352.0
184.167892 196.0
184.694992 76.0
185.008896 92.0
185.32579 120.0
187.040298 412.0
187.418045 176.0
188.509552 60.0
189.875671 152.0
191.018326 136.0
191.041351 172.0
191.067841 36.0
191.122879 212.0
192.037506 132.0
192.062332 120.0
193.01239 128.0
193.040039 192.0
195.022369 208.0
195.050171 128.0
196.565292 168.0
198.896683 72.0
200.043594 144.0
201.007523 152.0
201.0495 512.0
201.095016 220.0
201.332169 40.0
201.470581 180.0
202.052811 136.0
203.027405 100.0
203.058609 136.0
203.174911 180.0
203.614899 204.0
204.049667 176.0
204.177628 52.0
204.331238 76.0
205.000381 120.0
205.043747 204.0
206.733856 164.0
207.021378 176.0
207.065964 140.0
210.017838 180.0
210.785797 124.0
211.040741 184.0
212.047607 196.0
213.057419 208.0
213.560333 112.0
214.774963 88.0
215.034653 140.0
216.039856 108.0
217.048965 120.0
217.26445 160.0
218.057297 156.0
219.029617 124.0
219.068527 336.0
219.818436 80.0
220.066391 220.0
221.009293 148.0
221.0448 76.0
226.346542 96.0
227.888321 128.0
228.038651 192.0
228.889984 148.0
228.947189 168.0
229.049637 2064.0
229.748993 44.0
229.782181 56.0
230.054413 392.0
230.298386 116.0
230.319534 56.0
230.5401 80.0
231.04808 156.0
231.708099 92.0
232.030289 236.0
233.003601 196.0
233.043106 140.0
239.017365 200.0
239.03775 148.0
240.006836 192.0
241.179993 144.0
241.829559 176.0
242.001175 144.0
243.056808 120.0
245.041458 308.0
245.155869 84.0
246.029251 160.0
246.051102 272.0
247.016769 248.0
247.059799 264.0
248.0439 112.0
249.016617 176.0
255.025635 152.0
256.324829 128.0
257.045258 976.0
257.380676 40.0
257.779999 20.0
258.043671 136.0
258.217987 64.0
260.551636 76.0
261.046631 92.0
265.665527 240.0
268.854309 136.0
269.412659 148.0
270.043549 144.0
270.983093 212.0
273.039581 188.0
274.043915 700.0
275.051697 244.0
275.279022 40.0
275.5466 192.0
276.058929 160.0
276.316956 116.0
277.151337 176.0
285.033997 428.0
285.883942 144.0
286.034363 312.0
289.30658 104.0
289.794312 56.0
298.595093 144.0
301.030884 176.0
302.037415 140.0
303.049011 5860.0
303.114166 40.0
303.178253 112.0
303.585083 52.0
303.973633 156.0
304.056763 804.0
304.241425 208.0
304.265472 60.0
304.606049 32.0
304.658173 44.0
305.045868 152.0
306.007599 64.0
306.439484 72.0
306.470856 84.0
309.233215 76.0
330.02948 148.0
332.598083 84.0
345.039398 120.0
363.032898 228.0
380.035065 220.0
418.009766 112.0
490.020386 120.0
505.133057 92.0
909.228882 144.0
957.949951 56.0
1055.368896 92.0
1061.07312 164.0
1183.119751 236.0
1183.26355 208.0
1213.698364 152.0
1232.492676 168.0
1266.743042 160.0
1305.422241 168.0
1308.134766 228.0
1308.897949 96.0
1321.537109 64.0
1343.76355 132.0
1356.884888 148.0
1388.616821 104.0
1414.158569 92.0
1426.550659 172.0
1442.713989 164.0
1446.0802 52.0
1460.633789 156.0
1466.48938 96.0
1502.740479 124.0
