>compound Irbesartan
>formula C25H28N6O 
>ionization [M+H]+
>parentmass 429.240845
#inchi InChI=1S/C25H28N6O/c1-2-3-10-22-26-25(15-6-7-16-25)24(32)31(22)17-18-11-13-19(14-12-18)20-8-4-5-9-21(20)23-27-29-30-28-23/h4-5,8-9,11-14H,2-3,6-7,10,15-17H2,1H3,(H,27,28,29,30)
#inchikey YOSHYTLCDANDAN
#Ion_Source LC-ESI
#Instrument qTof
#Compound_Source Isolated
#PI Sirenas
#Data_Collector Ed Esquenazi 
#Scan -1
#Precursor_MZ 429.24
#ExactMass 0.0
#Charge 1
#CAS_Number N/A
#Pubmed_ID N/A
#Smiles N/A
#INCHI_AUX N/A
#Library_Class 3
#SpectrumID CCMSLIB00000005546
#IonMode Positive
#UpdateWorkflowName UPDATE-SINGLE-ANNOTATED-BRONZE
#LibraryQualityString Bronze
#TaskID d19310cd93df49b68e9fcbec27720eb5
##Scan# 8
#SpectrumFile Irbesartan.mgf
#LibraryName fda_library.mgf
#MQScore -1
#Organism fda_library
#TIC_Query 0
#RT_Query -1
#MZErrorPPM -1
#SharedPeaks 0
#MassDiff 0
#LibMZ -1
#SpecMZ 429.24
#SpecCharge 0
#internalFilename spec-00000.mgf

>collision 10
102.033241 19.2449
104.045937 9.739865
112.075333 256.762207
112.146126 8.167075
112.780685 4.335417
114.032379 13.08333
117.056679 44.707359
118.750504 12.52898
123.09053 13.65583
124.073792 109.689201
124.483299 20.52022
125.565575 22.74053
128.04686 9.238782
129.043152 40.45055
135.603989 18.46314
138.043823 23.54001
139.054245 45.266048
139.321121 6.568056
140.047165 126.249496
140.582321 6.925962
150.053391 13.81488
150.125885 41.446972
150.43837 8.354167
150.460541 7.372784
151.053925 9.897348
152.0616 173.509201
153.070786 283.240601
159.143906 2.583333
163.05246 32.95319
164.061203 153.489899
164.36702 16.166861
164.830383 16.10417
165.069031 84.540901
165.633011 10.97143
165.909531 8.647059
166.220062 14.79918
166.398285 10.30025
166.45192 9.676536
167.071503 102.705002
167.154465 770.800903
167.787674 4.662725
176.329453 8.578431
177.057434 25.08672
177.124695 8.2
177.407959 10.90668
178.071945 469.192505
178.084229 16.577539
178.207657 6.229167
178.28894 3.852083
178.3367 8.966954
178.609436 10.12408
178.712509 19.895491
179.023621 4.029167
179.073105 240.253799
179.154694 168.498505
179.19104 4.7075
179.22435 10.81944
179.335632 5.300463
179.538055 3.740833
179.591949 6.512931
179.685211 6.75511
180.048615 21.64327
180.080414 1658.938965
180.28746 10.27632
180.321136 27.39599
180.398712 10.30341
180.417892 3.685185
180.432419 6.704166
180.605057 4.510417
180.639633 18.153339
180.651169 7.106692
182.451782 12.17029
182.527008 8.15097
184.960678 8.17742
189.070709 7.188582
190.064194 706.425293
190.36821 4.099265
190.417542 7.969086
190.988983 5.521719
191.095551 8.918374
191.143402 5.297861
191.29921 9.770833
191.364166 5.868055
191.393051 9.176802
191.739731 3.837694
191.768631 3.360119
192.062653 10.26357
192.079468 992.05719
192.174057 14.81713
192.396606 9.588235
192.415588 13.63415
192.511612 6.994048
192.955582 6.031746
193.899078 5.030934
193.947037 9.13362
193.961823 12.84187
193.973221 9.225899
194.001434 57.750271
194.015335 10.0498
194.031219 17.216009
194.044647 19.269609
194.054764 41.626869
194.06871 5.683468
194.110382 88.009804
194.130035 54.50806
194.160553 27.91176
194.177185 5.973485
194.194778 17.870371
194.207275 9.361112
194.221222 21.52705
194.241745 34.292091
194.265213 27.919689
194.287247 11.73874
194.301285 28.88044
194.314697 9.928491
194.326599 19.8358
194.358521 28.193859
194.403244 6.615942
194.42746 17.838591
194.643387 13.79365
194.710999 18.351851
194.834641 13.2
194.873993 8.501437
194.967194 13.08671
195.088989 28.94948
195.149445 39555.488281
195.382599 14.45237
195.440842 32.695648
195.470856 33.308781
195.485046 13.64015
195.505249 29.85297
195.527969 27.74122
195.562561 52.99107
195.585709 46.124069
195.598618 57.235378
195.618515 30.312111
195.642563 25.40291
195.660873 39.288971
195.688675 46.05283
195.718201 32.85297
195.736069 40.423
195.750992 21.66884
195.776215 18.973339
195.800201 67.89386
195.817581 17.0
195.84285 23.23534
195.889038 30.09572
195.912262 12.50053
195.926117 5.22978
195.950012 30.177469
195.991104 9.08188
196.038773 32.400661
196.050705 9.336218
196.119675 21.756701
196.409592 7.218137
196.863815 4.083333
196.938904 6.224085
197.172974 5.019737
197.31955 3.677083
197.823883 12.71402
198.675522 10.79308
199.500305 9.420094
199.730743 5.044384
200.173996 5.365079
203.252075 5.348958
203.370621 8.918403
204.364578 4.207825
204.750992 5.75336
204.936615 8.850379
205.07724 415.949707
205.132416 8.469477
205.565964 9.556818
205.754166 31.12558
205.793045 68.324959
205.816269 22.856039
205.835022 177.727905
205.874023 97.36274
205.906296 143.763107
205.931091 207.812897
205.958374 149.525299
205.973068 50.053501
205.993866 156.927399
206.01413 193.226593
206.035843 43.714191
206.046051 142.339798
206.084641 1231.517944
206.132202 12.25
206.144669 124.8442
206.171661 92.097702
206.190704 7.4075
206.201416 70.904861
206.21788 12.72844
206.233566 33.300468
206.263031 73.310623
206.279633 18.505819
206.306442 40.014519
206.338669 34.537811
206.390488 31.117979
206.442871 44.593151
206.493027 58.635139
206.530869 40.15036
206.591049 23.76931
206.618988 22.328951
206.63356 26.20685
206.648727 3.83443
206.691772 29.213619
206.74382 39.173641
206.788864 104.452499
206.855331 89.406303
206.942307 12.07824
207.092209 176565.703125
207.419556 2.000992
207.516327 16.33095
207.543961 45.806061
207.562973 84.32489
207.575516 15.00157
207.586746 34.357849
207.603271 35.76482
207.621063 34.663818
207.643951 49.919449
207.667862 20.94796
207.682129 49.923168
207.699982 81.194206
207.717194 78.208931
207.743118 35.98
207.758209 59.394039
207.805328 31.923611
207.832535 40.347481
207.868027 155.851593
207.882187 5.669445
207.905823 16.155689
208.040146 17.37455
208.055634 56.45565
208.156479 108.183296
208.263458 15.93954
208.290268 91.819031
208.320923 18.54347
208.337738 44.404919
208.389984 10.41529
208.401962 17.431709
208.41394 36.115189
208.469589 35.775219
208.527771 68.417648
208.584015 60.886551
208.607269 31.79089
208.63472 22.9988
208.671509 10.7275
208.686874 39.243721
208.795425 8.435416
208.84964 42.111778
208.887985 18.6875
208.986115 47.515308
209.001953 48.06982
209.03508 13.07335
209.075409 10.24612
209.111572 34.680019
209.127548 33.657841
209.166809 8.540541
209.21579 7.040948
209.24733 3.348485
209.267105 12.18301
209.644882 9.004573
209.871796 4.09375
209.901001 9.115
209.928391 14.54844
209.962814 17.589239
210.073593 11.41241
210.181213 13.48761
210.413345 14.35028
210.61441 8.148192
210.805908 12.40374
211.234772 8.292523
211.408325 11.48761
212.642761 7.748903
212.666443 6.555555
213.069397 9.877559
213.638199 4.460022
215.917526 5.927083
215.983276 5.891523
219.04155 9.129657
227.451477 6.591954
232.161087 13.36166
233.670135 9.1125
233.721939 7.686683
233.793015 10.69266
233.828339 7.521719
233.87085 5.048214
234.118896 8.680021
234.158234 4.201868
234.522736 8.549603
234.706879 4.595158
234.829468 8.570833
234.942078 10.02688
235.038147 8.918155
235.056396 39.724461
235.097473 3248.487061
235.160126 4.333965
235.321869 22.698811
235.386169 15.36343
235.399673 10.42857
235.437607 7.876059
235.632126 7.296297
235.741974 6.667059
235.842148 9.960103
235.92897 7.833644
235.944473 4.860887
236.811249 8.682971
237.974686 18.34774
250.094452 45.13063
261.133728 33.2005
262.135651 21.58284
268.756348 31.20752
271.128021 14.02367
289.130646 30.18149
290.170654 14.11343
318.161926 95.29068
329.159119 9.167174
330.17572 9.507247
333.889343 24.866871
344.02301 5.074912
344.781616 11.8125
372.224091 99.657082
372.597137 8.683402
374.230713 7.667046
382.46582 3.511111
383.698242 7.272135
383.763702 5.806818
383.81012 10.45936
383.859131 13.6297
383.916687 20.916479
383.977692 8.840468
384.001556 27.373751
384.100403 9.355833
384.204407 47.717388
384.789337 6.16723
384.843903 7.507576
385.595093 6.382761
385.656525 6.842803
385.724548 9.514423
385.942688 8.263888
386.160614 39.152908
386.222748 8026.083984
386.305847 10.34694
386.328888 79.867577
386.388336 32.222031
386.430176 17.358971
386.45694 49.29211
386.479004 18.835711
386.501221 25.61688
386.544891 57.968658
386.581421 33.244011
386.614014 22.144501
386.647522 4.501389
386.708801 10.0423
386.729858 15.00423
386.761627 27.87417
386.797546 23.684151
386.913452 19.02421
387.099213 6.190104
387.181732 9.706679
387.41568 21.458469
387.633453 6.012112
387.859619 4.844298
388.114441 6.870427
388.291351 9.204166
388.471191 7.004167
389.406403 12.4375
389.638092 6.346688
389.840912 9.1875
396.011719 9.01875
398.808929 9.997093
399.386108 8.151124
399.476074 6.932035
400.226166 297.234589
400.421722 4.926697
400.544098 4.333333
400.634613 5.229167
400.708069 16.347521
401.136505 40.421902
401.233704 4992.291992
401.317902 11.2408
401.341919 28.739599
401.407318 8.433333
401.446991 29.197029
401.503143 49.158829
401.571625 9.185308
401.610168 11.90536
401.774963 17.42614
401.892242 11.6702
402.052887 6.002083
402.292603 11.5571
404.166138 16.055559
404.386108 5.68109
415.564667 13.17348
421.861084 4.041667
422.858582 11.01398
423.309753 10.34363
424.364929 12.04167
426.257141 8.090278
426.379425 15.57254
426.404938 39.243099
426.437469 68.643433
426.484406 40.748981
426.509979 25.39488
426.540253 71.116943
426.582855 43.46627
426.617401 42.772861
426.672485 67.47303
426.70343 29.211109
426.735413 57.2057
426.768127 55.322399
426.810822 48.53846
426.851471 20.13204
427.09906 22.22328
427.154419 4.356019
427.327515 7.836111
427.461853 16.920019
428.013733 25.603319
428.057922 20.47056
428.129059 13.79784
428.226562 7.508333
428.255219 7.837302
428.679413 8.886719
428.839294 24.521851
428.931305 34.227699
428.949036 7.030935
429.091095 13.33712
429.126953 16.13587
429.149048 25.96401
429.240845 38334.960938
429.476349 35.326302
429.523529 22.08251
429.560822 17.2155
429.587708 35.384201
429.63092 24.569651
429.657959 62.031528
429.710205 25.33478
429.757721 49.753609
429.793915 56.254318
429.872864 34.89444
429.90274 62.273861
429.958588 23.69112
429.984955 80.069656
430.056091 92.798828
430.117767 65.786301
430.322937 90.226997
430.370728 43.674049
430.449432 98.250214
430.480957 63.723469
430.530334 20.657089
430.592224 36.264061
430.687469 36.972389
430.845184 44.95406
430.929993 10.0935
431.220673 23.60615
431.293365 18.69409
431.431519 22.20764
431.753479 34.928371
431.833527 5.851191
431.883575 8.582309
432.169098 8.193452
432.456818 14.72596
432.52243 3.9675
432.99823 8.699405
433.092072 8.669444
433.236053 9.064637
433.796265 9.224916
435.259766 4.169872
435.311066 5.785715
437.643616 6.160257
438.802094 4.561237
443.177704 8.060012
678.175049 4.895833
953.587891 6.742424
1430.254028 5.895102
1516.907593 14.83893
1628.888794 6.359509
