>compound MLS000863597-01!(4,7,7-trimethyl-3-bicyclo[2.2.1]heptanyl) (E)-3-(4-hydroxy-3-methoxyphenyl)prop-2-enoate
>formula C20H26O4
>ionization [M+H]+
>parentmass 331.191
#inchi InChI=1S/C20H26O4/c1-19(2)14-9-10-20(19,3)17(12-14)24-18(22)8-6-13-5-7-15(21)16(11-13)23-4/h5-8,11,14,17,21H,9-10,12H2,1-4H3/b8-6+
#inchikey PKAIECBWQZFYRP
#Ion_Source LC-ESI
#Instrument qTof
#Compound_Source NIH Natural Product Library
#PI Dorrestein
#Data_Collector VVP/LMS
#Scan -1
#Precursor_MZ 331.191
#ExactMass 330.183
#Charge 1
#CAS_Number N/A
#Pubmed_ID N/A
#Smiles COc1cc(/C=C/C(=O)OC2CC3CCC2(C)C3(C)C)ccc1O
#INCHI_AUX N/A
#Library_Class 1
#SpectrumID CCMSLIB00000080294
#IonMode Positive
#UpdateWorkflowName UPDATE-SINGLE-ANNOTATED-GOLD
#LibraryQualityString Gold
#TaskID b1d8e8f6646f4e71acdff9ca3d919d08
##Scan# 2729
#SpectrumFile p2-G06_GG6_01_18054.mzXML
#LibraryName NIH_Natural_Products_Library.mgf
#MQScore -1
#Organism NIH_Natural_Products_Library
#TIC_Query 0
#RT_Query -1
#MZErrorPPM -1
#SharedPeaks 0
#MassDiff 0
#LibMZ -1
#SpecMZ 331.191
#SpecCharge 0
#internalFilename spec-00000.mgf

>collision 10
95.085747 428.0
96.0924 172.0
99.348549 156.0
100.666206 124.0
103.056618 228.0
103.596809 172.0
104.363983 192.0
107.498131 176.0
108.267166 164.0
109.109619 192.0
111.27832 124.0
117.034164 1292.0
129.366776 136.0
131.045135 148.0
134.036362 204.0
134.965622 56.0
137.132477 1056.0
137.248154 60.0
138.137985 172.0
139.549835 68.0
140.496628 156.0
145.028763 1064.0
145.436966 56.0
146.03392 260.0
147.039948 156.0
149.058685 404.0
150.064972 184.0
156.503586 116.0
161.507919 244.0
162.031189 288.0
167.004852 188.0
173.908905 124.0
173.987656 84.0
174.155731 48.0
175.055191 108.0
176.998718 168.0
177.055725 2896.0
177.247726 40.0
177.282166 56.0
178.057434 196.0
178.793274 68.0
179.006241 132.0
179.067505 180.0
179.232666 108.0
195.067261 552.0
195.961258 204.0
219.946045 204.0
223.949005 56.0
225.013596 112.0
240.263596 136.0
244.900696 144.0
302.161255 104.0
329.298218 108.0
331.226105 100.0
462.921326 156.0
690.745117 20.0
829.719604 164.0
1091.052002 160.0
1136.274902 176.0
1152.622803 216.0
1232.359131 184.0
1234.330322 116.0
1236.463867 172.0
1282.280396 176.0
1291.404907 148.0
1291.841309 56.0
1379.879028 164.0
1400.337646 200.0
1405.608276 140.0
1461.87085 184.0
1475.401855 108.0
1478.507324 68.0
1480.63562 216.0
1487.459473 220.0
1488.081299 136.0
