>compound cyclo(L-Trp-L-Pro)
>formula C16H17N3O2 
>ionization [M+H]+
>parentmass 284.139587
#inchi InChI=1S/C16H17N3O2/c20-15-14-6-3-7-19(14)16(21)13(18-15)8-10-9-17-12-5-2-1-4-11(10)12/h1-2,4-5,9,13-14,17H,3,6-8H2,(H,18,20)/t13-,14-/m0/s1
#inchikey RYFZBPVMVYTEKZ
#Ion_Source DI-ESI
#Instrument qTof
#Compound_Source Isolated
#PI Keyzers
#Data_Collector R Keyzers
#Scan -1
#Precursor_MZ 284.139
#ExactMass 283.132
#Charge 1
#CAS_Number 38136-70-8
#Pubmed_ID N/A
#Smiles N/A
#INCHI_AUX N/A
#Library_Class 3
#SpectrumID CCMSLIB00000007122
#IonMode Positive
#UpdateWorkflowName UPDATE-SINGLE-ANNOTATED-BRONZE
#LibraryQualityString Bronze
#TaskID 76b66bf1ccd04cec9993212b36387ea3
##Scan# 4
#SpectrumFile CDB02_28H_MSMS_001.mgf
#LibraryName gnps_library.mgf
#MQScore -1
#Organism test_rob_keyzers
#TIC_Query 0
#RT_Query -1
#MZErrorPPM -1
#SharedPeaks 0
#MassDiff 0
#LibMZ -1
#SpecMZ 284.139
#SpecCharge 0
#internalFilename spec-00000.mgf

>collision 10
103.049599 82.482224
107.833794 41.50544
113.06678 126.352097
115.056946 227.471298
115.082504 327.648499
118.064232 306.133301
123.076889 44.060612
123.935081 38.154339
125.068626 626.670715
126.069557 38.882351
127.080933 53.65789
129.143463 68.123978
130.062988 28843.289062
130.418121 46.505619
130.460663 44.26313
130.658722 42.939999
130.702271 29.847219
130.919724 53.262032
131.066193 2698.621094
131.227554 29.63464
131.431442 29.649509
131.47879 35.01704
132.077438 1196.042969
133.081451 311.416992
138.057358 64.253128
141.062485 67.117653
142.063095 142.611206
147.087189 73.898354
153.064102 347.958405
154.072906 45.136829
155.078445 266.238312
157.04689 74.059563
159.088593 913.826416
159.738586 34.11607
160.091431 110.742599
160.994827 61.9375
161.902725 40.839291
167.072159 40.793629
167.105225 41.806252
170.057465 2581.038086
170.173813 33.513889
171.064468 151.335297
172.041 31.75
179.068054 54.13158
182.092285 48.97266
182.952744 57.666672
199.048935 40.185612
199.082916 42.285469
200.937759 35.215561
203.988708 34.12981
207.131531 91.628128
215.086487 54.642689
219.128555 88.021637
219.553024 44.39946
225.028076 36.508339
227.159943 85.906914
235.037704 43.83456
237.08049 43.636829
238.196823 30.091909
239.118423 36.42857
240.224655 100.780998
241.088867 140.896194
243.134689 95.171242
243.545288 53.13636
245.054718 41.340721
250.98317 38.38007
251.108505 88.50618
255.117386 49.960041
266.94693 38.041672
267.097473 72.442413
283.144104 153.061096
283.192841 92.86058
284.139587 1219.630005
284.329193 1617.505005
285.146088 354.595612
285.232971 47.112499
285.332428 165.847107
286.128784 31.6098
306.100189 45.30645
340.250732 32.024712
397.859558 30.72473
765.524902 38.541672
883.354919 29.04735
2105.853027 38.05592
2466.387207 32.001789
