>compound cyclo(L-Tyr-L-Pro)
>formula C14H16N2O3 
>ionization [M+H]+
>parentmass 261.123
#inchi InChI=1S/C14H16N2O3/c17-10-5-3-9(4-6-10)8-11-14(19)16-7-1-2-12(16)13(18)15-11/h3-6,11-12,17H,1-2,7-8H2,(H,15,18)/t11-,12-/m0/s1
#inchikey LSGOTAXPWMCUCK
#Ion_Source DI-ESI
#Instrument qTof
#Compound_Source Isolated
#PI Keyzers
#Data_Collector R Keyzers
#Scan -1
#Precursor_MZ 261.123
#ExactMass 260.116
#Charge 1
#CAS_Number 4549-02-4
#Pubmed_ID N/A
#Smiles N/A
#INCHI_AUX N/A
#Library_Class 3
#SpectrumID CCMSLIB00000007139
#IonMode Positive
#UpdateWorkflowName UPDATE-SINGLE-ANNOTATED-BRONZE
#LibraryQualityString Bronze
#TaskID 76b66bf1ccd04cec9993212b36387ea3
##Scan# 3
#SpectrumFile CDB02_30E_MSMS_002.mgf
#LibraryName gnps_library.mgf
#MQScore -1
#Organism test_rob_keyzers
#TIC_Query 0
#RT_Query -1
#MZErrorPPM -1
#SharedPeaks 0
#MassDiff 0
#LibMZ -1
#SpecMZ 261.123
#SpecCharge 0
#internalFilename spec-00000.mgf

>collision 10
101.054558 18.00107
102.123886 26.53289
102.272949 10.1201
106.063019 24.213539
107.048836 2116.584961
107.142654 31.58448
107.712494 15.23132
109.008713 30.84005
109.066513 16.588539
110.054482 43.01828
110.101906 13.0303
112.03035 42.261909
113.070877 297.269501
115.050438 12.04167
118.062286 13.0303
119.047935 278.488403
121.03405 57.41927
121.061577 34.78392
122.057709 72.44928
125.07312 59.438591
125.512924 10.00463
126.078621 37.226189
127.087036 17.804489
128.957184 13.76923
130.061966 58.301071
134.054337 56.46875
134.901505 19.15151
136.075653 1153.20105
136.178452 16.34347
136.243134 12.93333
137.072952 31.225
137.520966 10.875
137.6147 12.36667
138.050751 39.0947
139.515488 25.36742
146.05336 10.63333
147.041565 107.333298
151.041153 17.81481
152.068268 66.800438
152.122131 26.922871
153.061646 58.377411
154.072647 559.630127
154.532318 10.71196
155.080856 287.122498
155.530457 12.94833
156.507401 21.00107
157.073853 14.16667
158.086182 16.25
159.08429 20.48333
159.981979 17.41667
164.059372 12.30682
166.778488 19.453699
170.012924 36.041672
171.083054 17.63117
173.083008 14.23077
174.114029 60.70919
175.044098 16.68889
175.124786 47.517239
176.101608 13.73611
181.070557 51.03418
186.089722 25.309959
188.10762 90.533607
191.103394 24.10887
203.08754 19.601191
211.359741 10.08333
215.082184 27.9697
216.089966 20.63117
227.097885 17.07692
229.775467 11.35833
230.122986 25.777781
230.429932 10.20833
242.143478 27.30242
243.111664 17.92857
244.092117 40.298248
246.22438 27.369049
253.785873 17.07456
259.137848 16.84375
259.277771 13.9671
260.16568 37.67244
261.131104 472.115295
264.146912 15.38851
274.132355 11.19853
295.184204 14.78305
306.510254 17.838539
306.986938 10.0
310.585846 15.54833
343.105804 20.79594
426.133789 13.77932
456.184601 14.25379
479.079468 10.51042
553.803833 13.30769
583.018494 11.40833
590.057678 12.19022
615.318909 13.49405
667.425171 31.308331
700.653931 11.33333
711.76947 20.505079
731.721436 15.94697
764.387939 17.005951
819.75885 12.70525
845.631897 17.20833
899.211609 11.66865
962.123535 11.79891
972.670898 15.39706
987.197083 12.46667
989.869019 14.81548
1046.404175 34.485611
1057.799194 16.592739
1071.089111 14.84375
1076.244751 18.67222
1117.900757 10.66667
1121.979248 12.04167
1146.068848 18.061871
1148.740601 49.81818
1168.971802 10.35307
1179.750854 11.57615
1281.126099 12.55556
1314.609619 12.46667
1444.893433 16.59524
1453.198853 12.38294
1493.949463 12.00758
1496.503418 14.27273
1543.265137 11.00641
1579.761108 20.85965
1762.370972 11.44444
1771.258789 12.92747
1863.085815 12.00758
1864.154785 15.16376
1869.224854 11.51096
1933.290649 16.45833
1964.59082 21.085991
1993.388428 11.66667
1997.46106 21.85368
2061.370117 17.63575
2063.635498 16.081671
2134.162598 14.01389
2254.622314 19.861111
2255.048584 13.13225
2255.408936 19.444441
2285.837402 12.68889
2341.999023 10.09524
2415.862061 10.01974
2421.274658 13.61742
2424.5896 11.68167
2462.261963 10.135
2531.204346 12.66667
2550.216553 11.20167
2566.722412 21.77932
2717.129395 11.71078
2736.118164 11.89043
2758.482178 10.33333
2891.287842 12.02564
