>compound Milrinone
>formula C12H9N3O 
>ionization [M+H]+
>parentmass 212.081589
#inchi InChI=1S/C12H9N3O/c1-8-11(9-2-4-14-5-3-9)6-10(7-13)12(16)15-8/h2-6H,1H3,(H,15,16)
#inchikey PZRHRDRVRGEVNW
#Ion_Source LC-ESI
#Instrument qTof
#Compound_Source Isolated
#PI Sirenas
#Data_Collector Ed Esquenazi 
#Scan -1
#Precursor_MZ 212.082
#ExactMass 0.0
#Charge 1
#CAS_Number N/A
#Pubmed_ID N/A
#Smiles N/A
#INCHI_AUX N/A
#Library_Class 3
#SpectrumID CCMSLIB00000006442
#IonMode Positive
#UpdateWorkflowName UPDATE-SINGLE-ANNOTATED-BRONZE
#LibraryQualityString Bronze
#TaskID d19310cd93df49b68e9fcbec27720eb5
##Scan# 9
#SpectrumFile Milrinone.mgf
#LibraryName fda_library.mgf
#MQScore -1
#Organism fda_library
#TIC_Query 0
#RT_Query -1
#MZErrorPPM -1
#SharedPeaks 0
#MassDiff 0
#LibMZ -1
#SpecMZ 212.082
#SpecCharge 0
#internalFilename spec-00000.mgf

>collision 10
100.014992 30.831619
101.037804 107.2202
101.268265 4.453432
102.034523 346.897888
102.887451 8.483334
103.053871 969.249023
103.103714 8.666667
103.238167 7.173611
103.325432 3.815476
103.44693 6.668104
103.478775 8.372808
103.517456 25.0
103.57798 14.7787
103.592148 39.675659
103.605392 15.4422
103.627098 25.72464
103.667282 32.375
103.684135 5.703703
103.708626 26.73214
103.754333 17.43841
103.793976 14.67742
103.907837 4.59375
103.964363 9.050824
104.012688 54.625
104.049942 27182.759766
104.287148 15.45333
104.304283 46.17099
104.316963 38.436111
104.34053 17.70093
104.359894 30.50675
104.382553 21.29167
104.40551 20.08087
104.426147 21.648001
104.467148 45.634129
104.500916 47.77335
104.531219 23.433331
104.559982 13.51096
104.622803 31.629721
104.649902 10.34131
104.677437 43.126732
104.686386 24.10417
104.725853 19.525
104.753136 5.76923
104.781616 8.867857
105.088356 10.00134
105.152657 5.33477
105.202255 4.054824
105.245689 15.34631
105.391449 6.761905
105.525932 8.453704
105.558128 6.371212
106.063126 68.412483
106.106949 7.354167
106.38665 6.0
106.648766 8.11638
106.810486 7.337719
107.061729 80.354156
107.740112 9.423913
108.401939 4.041667
112.545181 5.333333
113.010101 11.68116
113.038857 1840.139038
113.08741 7.333333
113.139595 8.138888
113.183662 5.080128
113.196304 22.31514
113.373024 15.81897
113.432068 11.66821
113.558121 21.491671
113.576675 6.366936
113.610146 14.07
113.647354 17.73848
113.730713 19.589741
114.10051 3.115741
114.17057 7.576149
114.274315 21.638889
114.316322 5.59375
114.394005 22.01071
114.442162 9.001811
114.4645 6.520061
114.564972 10.33929
114.617119 13.34295
114.639473 6.352941
114.661827 15.17204
114.68045 8.334259
114.822983 5.041667
115.053719 4224.057129
115.099403 64.866631
115.116531 21.139931
115.132492 25.67157
115.144135 52.56493
115.166046 13.17361
115.199112 25.310459
115.212204 13.85714
115.246132 20.1875
115.329964 7.75
115.351517 10.535
115.38192 14.55833
115.393288 18.1408
115.408096 18.164949
115.434235 10.00309
115.453423 57.41943
115.482834 17.0056
115.505836 7.865196
115.530037 16.005211
115.565201 9.363637
115.579025 53.114941
115.618515 24.75176
115.65873 10.73016
115.688545 7.670834
115.743813 18.74074
115.795212 6.541667
115.842705 20.456869
115.857132 21.647091
116.010162 8.506945
116.049835 19868.490234
116.229729 44.284531
116.273766 38.645828
116.301788 35.011971
116.32756 25.65591
116.352211 51.30043
116.374352 11.56488
116.393051 40.67738
116.425499 24.08013
116.486961 26.33404
116.505447 12.88913
116.533257 33.460571
116.550301 20.682489
116.565697 30.70174
116.585587 20.28657
116.611313 12.37306
116.634056 9.45
116.671021 21.60656
116.689056 20.194441
116.757385 2.761364
116.817291 7.672619
116.873055 28.303789
116.984276 29.062929
117.017876 10.08333
117.057182 5951.720215
117.104385 109.702003
117.132034 7.933333
117.199593 49.094471
117.222397 28.48156
117.246758 38.002621
117.277252 12.64264
117.295479 27.737789
117.323555 32.7211
117.377335 20.964211
117.418465 20.3591
117.433151 8.875
117.467316 29.2043
117.5159 27.375
117.542961 11.40833
117.63501 16.648439
117.717125 11.41346
117.737831 19.771429
117.867935 8.0
118.028488 102.904999
118.064575 3419.37207
118.158493 11.93889
118.169334 8.675
118.190872 19.25181
118.206192 13.92905
118.28096 3.700758
118.300011 21.70219
118.427551 26.7526
118.474838 14.18673
118.491333 11.72115
118.508102 18.10833
118.527534 49.691669
118.602203 16.11574
118.668762 5.721154
118.678642 6.057692
118.783234 12.41422
118.882195 4.59375
119.025185 129.044601
119.205559 18.11725
119.410103 3.002451
119.437828 9.469697
119.901398 2.761364
120.044289 88.799011
121.036858 103.745598
122.194901 6.25
124.19883 8.377451
125.037682 10.68627
126.035751 31.79167
127.02581 32.033329
127.043015 94.222992
127.125893 7.387821
127.795891 5.225
128.000626 75.194427
128.049286 783.624817
128.106125 2.695513
128.157166 7.564103
128.224274 10.5328
128.243973 7.2
128.318832 4.694444
128.42131 3.002451
128.5336 24.29529
128.594788 5.375
129.043289 326.339996
129.056503 578.451721
129.108093 3.125
129.124023 8.680555
129.266373 11.07716
129.306885 14.00833
129.341537 12.35041
129.370651 3.0
129.397125 6.98077
129.480057 17.671539
129.587143 54.335449
129.60553 16.152781
130.015442 8.783334
130.064941 3242.101074
130.114014 18.680559
130.149918 3.333333
130.168716 31.79771
130.220169 32.758331
130.264786 23.81349
130.297653 9.786765
130.316849 16.804741
130.340652 11.81944
130.353745 11.42672
130.447021 18.02899
130.463654 2.669872
130.539154 3.355392
130.578094 9.408334
130.626678 16.14583
130.642654 20.26535
131.036499 69.148323
131.392685 11.3952
131.411133 19.334351
131.511826 7.935
131.789139 26.088539
132.337326 11.32328
132.450012 16.691669
133.077545 57.408489
134.045486 131.589798
135.923874 28.00403
138.033859 96.945892
138.208618 4.340278
138.666412 3.555556
139.041199 341.433014
139.077026 10.67064
139.232971 3.34375
139.266312 58.205132
139.319199 12.66786
139.336731 7.490385
139.386581 25.48333
139.401337 6.00926
139.48912 50.349529
139.625107 20.30876
139.701447 6.25
139.828842 12.55556
139.94458 10.43254
140.049835 9517.052734
140.103561 72.425797
140.133759 83.360603
140.189041 24.34091
140.225601 67.554207
140.269455 44.18206
140.290787 34.76667
140.343521 8.79594
140.376221 14.96014
140.391815 9.028846
140.43338 9.001543
140.461838 28.718901
140.511597 67.549179
140.55809 9.063725
140.578751 28.16667
140.615448 11.91241
140.933075 25.081671
140.976089 3.111111
141.107437 53.14019
141.173126 4.741667
141.213287 16.804489
141.296921 16.30864
141.342453 39.80685
141.36882 23.68494
141.382034 24.253469
141.398575 29.14399
141.498596 48.69334
141.545395 9.370833
141.575745 9.426724
141.613678 13.54167
141.636047 16.54167
141.661591 10.16329
141.698563 14.8179
141.756561 12.01515
141.806259 8.066667
141.93605 17.73563
141.955872 18.06905
141.980331 16.67857
142.052689 18154.570312
142.234573 118.286003
142.250534 29.70005
142.280273 49.45858
142.31012 65.886574
142.322449 46.28907
142.359482 34.936211
142.39299 92.105057
142.423492 54.884819
142.462021 39.596199
142.479111 87.494339
142.521057 20.47414
142.555206 14.735
142.579025 45.082211
142.591614 18.7619
142.629425 23.78241
142.649155 66.114922
142.67334 24.78014
142.704773 17.69253
142.815781 31.320259
142.833099 56.756481
142.937241 14.65661
143.021576 23.146669
143.060608 13099.709961
143.251389 26.64035
143.311569 33.968361
143.343719 44.07946
143.443237 87.497299
143.515015 25.315069
143.535965 29.672621
143.576035 17.049999
143.592575 37.41523
143.631866 21.008329
143.671814 21.242479
143.684967 12.35459
143.705826 7.334677
143.74469 13.77337
143.76004 13.44877
143.785919 30.65444
143.86438 11.78333
143.919266 28.823009
144.045319 314.523193
144.424026 16.00079
144.472107 3.666667
144.809738 34.98246
144.871719 6.679598
145.037262 112.350197
145.075424 2896.351074
145.139877 15.69792
145.182281 27.01708
145.223129 7.653986
145.269791 4.333333
145.28656 11.722
145.324295 2.671296
145.339462 10.16009
145.353653 7.386905
145.3909 2.777778
145.430176 14.56019
145.445984 27.379589
145.571838 6.333333
145.668396 5.669117
145.736359 15.25962
145.764984 8.847222
145.819687 15.2272
145.844803 12.82372
146.223251 8.980392
146.319565 23.10714
146.425156 9.505081
146.775482 9.222222
147.193863 19.88172
150.033768 7.371913
150.097916 14.17729
150.161636 3.335784
150.30661 11.75212
152.048813 242.443604
152.150314 6.522727
152.48024 12.44167
152.614304 9.280702
152.657394 6.336538
152.73465 4.335
152.902374 6.00119
153.00563 4.017857
153.046707 296.750214
154.053589 172.735703
154.234543 4.681667
154.286362 14.15686
154.636871 17.967899
155.060303 1218.487061
155.112823 7.777778
155.12706 4.782407
155.260101 23.337959
155.305679 5.291667
155.320877 19.11574
155.368484 3.722222
155.420059 7.069445
155.628693 3.020833
155.693939 3.666667
155.911072 5.341667
156.043488 145.570404
156.066727 709.652893
156.13269 4.34375
156.276123 28.309151
156.306992 6.449713
156.328369 11.07407
156.389267 2.666667
156.576599 5.402778
156.828979 18.335779
156.859482 4.694444
156.924835 7.001984
156.943481 7.791667
156.994583 3.002451
157.0755 2234.685059
157.12973 9.334459
157.149368 3.720238
157.180634 18.40752
157.321823 18.752119
157.343491 5.668478
157.365356 17.57143
157.380081 14.22917
157.430374 9.601191
157.451294 9.190217
157.513718 7.338889
157.605392 14.04748
157.622894 12.53846
158.034607 24.57304
158.061493 152.593094
158.109131 38.87635
158.142288 9.555555
158.164993 17.72781
158.22197 4.166667
158.265747 34.151199
158.327271 12.10526
158.436188 7.146739
158.900833 15.33171
159.055878 275.703613
159.189682 5.225
161.068787 65.30201
163.713104 11.03716
165.043716 199.489105
165.116531 36.188221
165.148834 6.201666
165.302795 10.00595
165.332962 5.629902
165.681519 15.59393
165.709641 21.3832
165.73056 5.522727
165.793213 12.79839
165.820084 4.75
166.051956 3317.037109
166.122742 17.08889
166.151764 6.017857
166.174271 19.025
166.188507 19.614771
166.232224 9.088768
166.250687 20.723869
166.278275 14.30242
166.32579 20.24242
166.340668 82.552727
166.371567 6.088768
166.413193 28.67045
166.470367 23.31982
166.51593 8.034091
166.537643 3.00463
166.637192 23.621571
166.690063 11.7815
166.998672 14.25379
167.059738 3973.272949
167.13295 29.373739
167.173325 36.802979
167.186844 24.777781
167.224777 50.017399
167.273544 12.71078
167.292313 30.04125
167.314301 29.217661
167.395157 14.23077
167.445709 20.7027
167.454758 12.66793
167.507294 17.41523
167.559586 3.125
167.616867 26.333969
167.652893 5.041667
167.747833 21.1674
167.92778 7.001437
167.995407 6.355556
168.01355 9.349638
168.06601 6652.338867
168.125214 49.18523
168.140152 19.039471
168.186844 81.139793
168.198685 55.042721
168.241074 11.13021
168.261978 24.018749
168.277618 50.185791
168.349579 48.023548
168.378906 12.77394
168.410812 31.82955
168.451263 7.189394
168.472961 30.286249
168.523392 13.88561
168.577591 4.66886
168.591141 5.025641
168.713272 13.34626
168.880402 7.334524
169.044785 223.062103
169.142349 37.69445
169.203995 25.191139
169.219376 18.424999
169.255783 9.130208
169.2686 16.152781
169.296539 10.33333
169.368973 8.005555
169.440781 29.00177
169.49617 20.979429
169.572815 5.522727
169.59169 26.02697
169.658859 16.333879
169.690475 6.813406
169.733337 10.00595
169.75856 8.001126
170.121368 9.683333
170.252975 7.088889
170.280243 23.88258
170.378525 3.815476
170.531799 6.095238
170.693573 8.847222
170.880753 7.010417
171.05455 707.160522
171.148392 5.333333
171.199722 5.787037
171.303986 15.90645
171.322601 14.3705
171.381439 20.93667
171.480804 14.47414
171.543854 5.296568
172.041595 18.333969
172.10347 10.92308
172.207153 40.225121
172.265167 8.378623
172.448395 21.0336
174.436371 12.0
175.379547 8.001068
177.042679 131.866196
177.171677 8.881579
177.296722 4.674242
177.806641 8.022223
180.054657 108.044899
180.853424 9.041667
181.032959 17.706699
181.063614 170.764603
181.096786 9.334459
181.157654 10.00102
181.35437 7.2
181.391891 18.73171
182.070419 1250.766968
182.147644 35.810379
182.233658 24.587299
182.334793 6.022059
182.358353 9.833333
182.39122 15.13204
182.464417 7.347222
182.531143 8.166667
182.550766 4.469445
182.804047 5.59375
182.880173 19.709299
183.053665 101.449997
183.077789 514.343079
183.120361 24.53933
183.167267 6.0
183.233185 9.070175
183.263397 17.654409
183.331451 10.5641
183.346222 8.719017
183.591248 8.337501
183.798248 14.45588
183.902496 8.074074
184.064896 131.201599
184.08667 2821.586914
184.143784 18.926279
184.195877 13.81522
184.228348 11.14682
184.290344 11.12121
184.384247 25.86479
184.544113 18.71196
184.612137 26.856979
184.65744 6.107143
184.814636 32.112949
184.866226 9.920045
185.069366 442.037109
185.244781 5.480072
185.342422 16.223761
185.799194 13.40076
185.832321 7.69697
186.902313 23.55769
186.948807 39.210899
190.797775 17.29167
190.876526 3.916667
191.049835 47.00555
191.959488 7.041667
192.056 271.496613
192.121857 15.92803
192.457642 6.260417
192.544983 10.05482
193.0625 415.752106
193.268372 12.4537
193.357422 5.702587
193.546188 9.775537
193.963654 14.32051
194.045837 105.75
194.070496 201.691498
194.185516 9.047481
194.418274 5.346264
195.054855 714.344727
195.185455 3.708333
196.105103 6.734848
196.309982 17.093439
196.712433 10.58974
197.174591 6.818182
208.916443 36.06234
209.011429 9.700269
209.036591 8.560185
209.101974 5.00641
210.024231 6.371212
210.06604 1529.885986
210.135651 26.76556
210.254623 7.704545
210.337112 13.85195
210.376663 14.73284
210.401886 6.346264
210.553787 27.136749
210.600372 23.83849
210.618698 9.669871
210.743759 2.708333
210.776779 16.818939
210.810959 16.688829
210.957794 8.779321
210.992706 3.714286
211.164658 14.08232
211.185654 10.16071
211.328064 4.013889
211.477936 14.00595
211.513382 3.125
212.081589 3839.781982
212.144913 27.08333
212.187164 7.625
212.212311 8.684211
212.227524 9.333333
212.283432 15.08214
212.302643 20.48333
212.334518 20.62158
212.360275 32.698929
212.399872 12.38313
212.455643 13.69667
212.501282 6.020833
212.532013 3.354167
212.58255 6.003205
212.612869 8.435606
212.759995 4.013889
212.9478 14.35299
213.085052 12.8648
213.224106 7.382936
213.786636 12.97961
217.500244 4.7
269.522644 19.378151
291.261902 5.068182
336.587677 5.041667
351.393127 10.00397
400.333282 3.080128
556.931641 3.388889
947.589783 7.779321
1038.627197 63.073818
1250.530884 13.56199
