>compound Erdosteine
>formula C8H11NO4S2 
>ionization [M+H]+
>parentmass 250.019379
#inchi InChI=1S/C8H11NO4S2/c10-6(3-14-4-7(11)12)9-5-1-2-15-8(5)13/h5H,1-4H2,(H,9,10)(H,11,12)
#inchikey QGFORSXNKQLDNO
#Ion_Source LC-ESI
#Instrument qTof
#Compound_Source Isolated
#PI Sirenas
#Data_Collector Ed Esquenazi 
#Scan -1
#Precursor_MZ 250.02
#ExactMass 0.0
#Charge 1
#CAS_Number N/A
#Pubmed_ID N/A
#Smiles N/A
#INCHI_AUX N/A
#Library_Class 3
#SpectrumID CCMSLIB00000005959
#IonMode Positive
#UpdateWorkflowName UPDATE-SINGLE-ANNOTATED-BRONZE
#LibraryQualityString Bronze
#TaskID d19310cd93df49b68e9fcbec27720eb5
##Scan# 1
#SpectrumFile Erdosteine.mgf
#LibraryName fda_library.mgf
#MQScore -1
#Organism fda_library
#TIC_Query 0
#RT_Query -1
#MZErrorPPM -1
#SharedPeaks 0
#MassDiff 0
#LibMZ -1
#SpecMZ 250.02
#SpecCharge 0
#internalFilename spec-00000.mgf

>collision 10
100.018768 65.345711
101.500061 3.011905
102.002235 28.89352
102.036926 168.777695
102.113068 6.724359
102.305984 7.005556
102.479805 4.669445
104.482605 3.416667
104.531792 13.68176
104.574478 5.341667
104.585403 7.714285
104.877136 10.36687
104.980431 7.667683
105.000504 3860.542969
105.044563 25.70833
105.056755 5.541667
105.086502 21.480261
105.108765 8.360416
105.148888 21.06897
105.165871 9.240384
105.180138 7.670834
105.219391 12.16447
105.230095 2.678571
105.255051 5.083333
105.262184 11.0336
105.271133 26.50231
105.32296 12.30682
105.355019 4.734848
105.406487 1.777778
105.421768 7.449074
105.501236 2.0
105.526512 9.455882
106.002426 12.5873
107.810295 3.125
109.257713 3.680556
110.018806 26.358971
114.034531 20.65517
116.952232 5.444445
117.317154 7.005952
117.358902 10.3447
117.386215 10.08333
117.430519 4.333333
117.480476 8.45
117.562508 10.68632
117.586853 12.29441
118.031891 7958.39502
118.07962 53.6138
118.094864 11.90705
118.131798 4.852273
118.147896 6.34543
118.159416 12.44907
118.185799 11.80924
118.208405 10.00556
118.23867 2.00463
118.245766 12.84052
118.253838 7.375
118.27272 10.69823
118.295616 14.05762
118.308281 14.16388
118.323578 29.729799
118.347527 14.02222
118.374886 7.486111
118.401489 22.81204
118.428322 22.163151
118.471016 21.75172
118.506905 6.3
118.551468 5.148148
118.639984 17.33621
118.672203 4.041667
118.780518 10.76923
119.055984 14.52273
119.433289 7.335526
119.524979 26.165291
128.015778 41.793671
129.352585 4.061275
130.031067 489.915405
130.121323 5.66821
131.167145 10.36687
132.010803 50.96909
132.089264 8.022223
132.300415 10.38095
132.541275 8.361486
132.946899 22.165079
132.993744 132.142197
139.097488 37.201389
142.030701 312.932098
142.070633 3.342592
142.212677 4.340278
142.337433 10.17339
142.361191 12.68314
142.502426 9.429762
142.614471 15.02679
143.880234 15.16462
144.93364 4.66821
145.348557 5.001984
146.993454 39.878792
148.02153 16.53125
150.023697 35.56522
158.006927 65.338943
169.255112 7.647436
170.027756 89.413818
170.556503 9.111112
170.915329 8.061869
173.133957 29.373461
174.955856 12.89286
175.09874 9.198529
175.115234 1.741667
175.157562 2.083333
176.018509 1497.79895
176.120163 5.694445
176.15387 25.577971
176.254944 12.67539
176.411926 7.444445
176.457764 8.347222
176.509384 20.602079
176.570251 2.14881
176.60614 10.67949
176.805786 14.81718
176.98082 10.00134
178.019028 14.00225
187.005066 49.021488
188.038086 267.704102
188.27536 14.44599
188.864426 8.805555
199.760056 9.058333
202.746811 17.93511
202.792648 9.716269
202.829681 49.281239
202.849945 6.880952
202.884598 13.38081
202.919296 13.00658
202.939285 26.345881
202.961304 7.782407
202.991653 89.646667
203.010208 10.09122
203.028336 8.046875
203.079376 30.63586
203.108185 4.041667
203.137405 5.097222
203.167389 6.98077
203.247986 26.489161
203.717941 11.15705
204.014435 11991.209961
204.07373 95.272987
204.11084 32.6278
204.145737 49.969681
204.168518 19.81481
204.209534 68.246811
204.226349 45.935822
204.249557 22.43977
204.277939 44.85519
204.304214 6.336111
204.316299 18.85354
204.334122 7.340278
204.352737 17.546671
204.36937 9.088542
204.385071 21.71768
204.429138 24.474079
204.445389 46.32431
204.461594 15.12247
204.524506 15.92308
204.562531 3.803571
204.604156 26.82814
204.617691 14.68182
204.669525 32.705952
204.694733 25.16667
204.742218 15.16462
204.814545 50.68087
204.841675 9.334678
204.868362 22.074329
204.912628 19.48485
205.015945 64.00264
205.120575 17.0119
205.285049 5.333333
205.75386 15.67863
205.868088 19.669451
206.958435 16.8848
207.163498 15.23876
207.604614 6.678572
207.895187 4.002778
208.965332 3.857143
220.758804 14.6674
222.023422 816.200012
222.208481 11.46136
222.374451 10.20833
222.449631 15.40909
222.576859 18.148149
223.259735 17.12855
230.530487 4.333333
230.55864 7.653986
230.588715 20.857071
230.625626 19.177629
230.792358 16.60676
230.858459 6.013889
231.021118 9.8
231.379044 3.208333
231.790497 27.39562
232.009384 6374.821777
232.074203 65.762711
232.117798 8.408951
232.143982 41.853909
232.17189 63.834919
232.199478 20.028959
232.229156 10.76179
232.241074 2.520833
232.278595 20.741329
232.310547 21.284201
232.347076 6.001984
232.396194 51.613491
232.425323 12.80303
232.481506 23.45224
232.516373 7.111111
232.616318 12.81649
232.709656 17.086109
232.820007 16.743589
232.87381 4.490741
232.931076 9.8
232.961197 37.64394
233.015305 24.19652
235.705597 6.906746
236.741379 8.333333
248.601074 13.47581
248.754684 7.306818
248.797531 11.3952
248.824387 16.529091
248.949081 6.333333
248.973206 6.25926
249.18512 30.76622
249.360931 9.129273
250.019379 2069.009033
250.088181 8.886111
250.11412 14.69907
250.215195 14.92033
250.279312 22.56217
250.416809 6.840517
250.50473 7.173611
250.669785 11.54672
250.798523 6.297619
251.508774 9.926471
575.254639 19.5
697.192383 4.669445
