>compound Sulfamethoxazole
>formula C10H11N3O3S 
>ionization [M+H]+
>parentmass 254.059662
#inchi InChI=1S/C10H11N3O3S/c1-7-6-10(12-16-7)13-17(14,15)9-4-2-8(11)3-5-9/h2-6H,11H2,1H3,(H,12,13)
#inchikey JLKIGFTWXXRPMT
#Ion_Source LC-ESI
#Instrument qTof
#Compound_Source Isolated
#PI Sirenas
#Data_Collector Ed Esquenazi 
#Scan -1
#Precursor_MZ 254.06
#ExactMass 0.0
#Charge 1
#CAS_Number N/A
#Pubmed_ID N/A
#Smiles N/A
#INCHI_AUX N/A
#Library_Class 3
#SpectrumID CCMSLIB00000005386
#IonMode Positive
#UpdateWorkflowName UPDATE-SINGLE-ANNOTATED-BRONZE
#LibraryQualityString Bronze
#TaskID d19310cd93df49b68e9fcbec27720eb5
##Scan# 1
#SpectrumFile Sulfamethoxazole.mgf
#LibraryName fda_library.mgf
#MQScore -1
#Organism fda_library
#TIC_Query 0
#RT_Query -1
#MZErrorPPM -1
#SharedPeaks 0
#MassDiff 0
#LibMZ -1
#SpecMZ 254.06
#SpecCharge 0
#internalFilename spec-00000.mgf

>collision 10
100.03627 13.7027
100.058632 108.851997
100.238182 8.666667
100.424873 19.347219
102.649246 11.64031
103.041107 85.05764
105.043404 78.860023
105.326889 11.58854
106.050552 42.574711
106.53791 23.21887
106.623634 9.797101
106.709869 8.000969
107.059929 2569.74707
107.105492 10.67083
107.178612 33.486622
107.199173 9.385684
107.300247 10.8375
107.336884 19.16898
107.351685 11.29412
107.376678 21.375
107.408546 6.906746
107.426285 28.0117
107.465881 8.702381
107.483994 16.40064
107.527199 11.08013
107.549034 9.333333
107.590431 29.87314
107.62101 10.68182
107.631882 21.506229
107.653496 16.54701
107.765419 14.66731
107.772667 19.26556
107.93161 10.73684
108.044449 12822.719727
108.087746 62.08564
108.105194 30.33547
108.118103 36.019611
108.141685 27.91258
108.16256 9.695513
108.172813 25.42857
108.192352 45.621151
108.238808 60.25029
108.256241 40.86438
108.262695 14.21795
108.291222 7.757576
108.299446 30.35783
108.315277 12.5126
108.36734 9.716269
108.398354 14.34888
108.413086 17.273491
108.431252 10.7
108.441818 15.68542
108.4505 25.674641
108.479858 9.166667
108.508789 28.57424
108.537399 8.666667
108.572273 7.34248
108.689285 36.92157
108.700325 8.407609
108.747429 29.185369
108.81633 12.52083
108.854691 10.04167
109.060844 9.735
109.069321 30.101191
109.830017 19.341311
110.25528 5.041667
110.442322 9.741667
111.011574 3.926282
111.055534 15.78305
112.157936 18.30225
118.053406 35.366779
119.05854 100.333702
119.240791 7.779321
119.289215 11.18673
120.588692 11.40374
121.07692 54.014488
121.26033 16.3787
121.327286 9.445371
131.059158 123.68
132.066879 141.628296
133.062576 160.570206
133.115509 14.66774
134.380966 17.380751
135.054077 59.934319
135.595459 7.810714
140.015152 56.642929
145.073792 188.047897
145.252304 15.52083
145.265656 12.73016
145.840683 6.335784
146.070923 2478.842041
146.143326 12.70707
146.158035 7.208333
146.176804 7.583333
146.185455 15.3787
146.206421 19.66905
146.235809 9.240196
146.253403 7.344048
146.261063 10.34722
146.290497 45.44445
146.320312 18.68034
146.349075 33.51173
146.372086 16.073231
146.43367 21.671419
146.454697 7.724359
146.475281 18.91667
146.49263 20.743589
146.521973 25.37677
146.652649 16.38526
146.704483 23.84375
146.863998 29.986191
147.078964 9964.010742
147.129913 101.490501
147.147446 34.045399
147.163895 33.19146
147.20549 59.651508
147.244858 21.625
147.277664 15.61742
147.294022 26.70248
147.31427 30.660391
147.33165 12.00167
147.391388 73.781448
147.419998 9.721774
147.460938 19.93895
147.4729 22.879061
147.499069 10.375
147.514755 19.79431
147.524216 25.52035
147.53511 15.39682
147.558594 16.355551
147.592194 25.94491
147.686646 10.77632
147.732773 6.510965
147.745834 11.09513
147.999649 11.00089
148.029282 13.69792
148.041977 12.66745
148.054688 13.04012
148.086349 3379.87793
148.111771 3.694444
148.230087 13.89799
148.241486 9.1875
148.255707 16.40741
148.334198 9.104167
148.348953 15.16035
148.418945 7.708333
148.449524 14.00107
148.507782 12.96037
148.529358 21.65484
148.589233 20.688601
148.660629 8.333333
148.703049 16.0
149.065948 89.123863
149.169159 8.080129
149.306061 10.5328
149.901779 12.35648
151.032455 114.505898
151.374863 4.37037
153.582901 7.673611
154.952637 9.025407
155.025894 8.041667
155.05896 11.80278
155.071716 24.544291
155.097076 85.95948
155.118408 23.69463
155.132706 78.595863
155.168549 113.401199
155.192902 38.653069
155.213043 114.430199
155.222397 28.970711
155.231079 33.897869
155.252411 67.299408
155.269882 103.477997
155.28978 89.181267
155.31163 16.008329
155.345566 56.382
155.374771 175.329803
155.40274 99.762062
155.414719 26.4575
155.459824 13.77083
155.475876 24.754629
155.562531 13.08333
155.57753 31.717951
155.621796 29.160021
155.645966 17.490391
155.660812 15.78241
155.784744 8.818548
155.822449 19.48481
155.926178 17.19792
155.981537 127.186302
156.01152 83280.648438
156.063492 24.72331
156.145813 9.019608
156.197983 25.146151
156.312454 7.2
156.332947 12.19032
156.421539 81.018211
156.454666 42.721489
156.467911 28.68421
156.489548 124.950401
156.524124 98.127197
156.543808 98.500954
156.572189 67.807068
156.59938 112.501701
156.626251 17.08477
156.636154 28.676769
156.64711 27.773029
156.669296 16.32399
156.687576 93.221687
156.714951 18.486111
156.733231 25.260401
156.751236 80.079697
156.781494 61.75325
156.793823 19.000759
156.832733 54.888359
156.856216 45.624001
156.954895 22.51111
157.051987 46.25074
157.071411 27.752661
157.261765 17.97349
157.435104 31.42668
157.998077 11.70833
158.414536 12.55556
158.502106 7.364899
158.595001 43.443951
158.655533 6.927469
158.936005 9.469697
159.074478 57.641769
159.215164 21.887581
159.265656 14.73485
159.431992 11.04003
159.458359 11.45333
159.678085 11.01235
160.086548 4609.729004
160.123123 20.777781
160.158417 9.481482
160.167053 7.037879
160.213318 45.24437
160.236206 14.08681
160.294769 30.06579
160.330551 44.685612
160.355972 17.232759
160.396194 33.80669
160.409424 8.047619
160.426331 7.748333
160.440247 54.823231
160.487976 2.700758
160.501266 19.08886
160.549683 12.19048
160.677536 12.80303
160.783417 13.56944
160.814438 20.67157
160.915939 14.89655
161.000366 780.679016
161.056839 35.679852
161.070236 216.7668
161.176254 20.979811
161.243301 16.96681
161.804016 8.768939
162.712616 7.656609
162.794006 10.27222
163.087433 292.476807
166.075638 12.33333
167.333298 13.01071
172.087738 366.785187
172.288193 14.40278
172.375107 8.135
173.05574 86.893867
173.070221 237.041794
174.075653 95.305817
175.07634 74.29805
176.027069 603.020325
176.242249 6.386905
176.353104 8.375
176.784317 16.529091
177.009857 96.672493
185.054535 36.080029
185.780853 6.675926
186.902435 10.10227
186.963715 12.525
187.000626 37.674999
187.029831 13.10256
187.043777 6.34543
187.056564 3.148809
187.078613 67.645348
187.096115 9.776316
187.129211 23.95072
187.153091 23.38554
187.226593 17.013889
187.260208 21.074459
187.3246 6.482143
187.339157 25.31941
187.405243 9.605556
187.429352 7.667857
187.563324 17.563219
187.596405 10.37862
187.620941 20.15238
187.715454 7.989943
188.025177 8.666667
188.056961 53.304039
188.081696 16831.949219
188.138031 105.044701
188.158585 49.782982
188.230225 12.39682
188.248932 38.575142
188.269882 54.701019
188.299591 15.875
188.313873 32.173611
188.330002 10.34722
188.342316 20.613449
188.362701 88.751091
188.38681 17.052349
188.420563 30.0928
188.441391 58.28373
188.478699 68.699348
188.504684 55.50927
188.521622 17.67742
188.544067 28.2493
188.592529 29.152969
188.608078 15.06136
188.650818 78.779968
188.707962 10.76179
188.740479 22.16667
188.750244 26.4221
188.806625 28.23177
188.846497 14.35088
189.183334 8.592593
189.555496 13.825
189.61586 9.354167
189.679337 8.0
189.856583 17.712641
190.097122 7536.333984
190.155991 60.550709
190.176575 18.68281
190.187759 47.98452
190.228378 12.37191
190.256454 29.02009
190.293457 17.028151
190.310837 14.52632
190.349792 14.0
190.365128 24.81287
190.405365 26.111469
190.429214 7.826754
190.450333 11.07428
190.477676 28.835621
190.517868 19.66667
190.542847 25.387541
190.605362 18.12175
190.775223 6.906746
190.785172 23.760099
190.828064 7.225
190.942978 8.523809
191.028687 13.78125
191.22551 13.14405
191.312531 23.646299
191.566483 18.066669
191.76445 11.9616
192.473282 13.14881
192.899475 7.893518
192.996506 19.11846
193.032333 100.189201
193.144745 10.67581
193.166153 7.973485
193.235718 7.166667
193.592896 9.027778
193.904694 13.46261
194.037704 3328.115967
194.102203 7.523551
194.137161 6.680555
194.190994 13.35539
194.223511 15.23433
194.288757 34.8489
194.355362 23.960939
194.403854 9.852273
194.415741 12.79704
194.457275 9.32545
194.533737 12.25
194.680099 10.39583
194.775803 14.82843
194.893524 13.87879
194.96817 14.38043
195.399704 16.69467
195.92984 13.66667
206.359894 12.8293
211.093933 13.72222
212.051117 34.599998
219.185135 39.66898
234.579575 14.41987
234.798325 18.81081
235.758804 12.36742
235.801575 11.36232
236.048859 3181.856934
236.08696 3.666667
236.132111 27.9543
236.218491 21.460279
236.247284 11.75093
236.283447 16.158331
236.42984 22.83013
236.481216 34.838131
236.555389 9.180555
236.573074 39.640179
236.705215 9.347222
236.766006 26.856529
237.272781 17.004379
237.471237 10.03261
237.869308 6.818182
240.100006 6.696428
247.45491 21.728451
248.922119 9.736112
249.692184 9.676802
250.291748 14.01437
251.886978 11.02083
251.941986 18.480261
252.067108 14.08333
252.105774 7.340278
252.324173 16.362181
252.44223 87.896057
252.478867 166.856903
252.493774 30.430759
252.515259 26.335859
252.531128 77.799599
252.551758 139.455795
252.578186 163.398605
252.608322 211.322006
252.630798 4.033333
252.647415 229.908707
252.679733 289.845703
252.704727 192.794998
252.737732 86.263634
252.752274 228.025299
252.769257 26.67061
252.807693 125.224998
252.838837 75.815727
252.864746 29.05357
252.904022 54.159561
252.918152 139.295807
253.008224 267.579102
253.105209 16.39683
253.122086 14.67361
253.222427 26.16733
253.262741 22.25338
253.283447 12.38294
253.326691 116.364098
253.363464 20.45075
253.466019 12.21338
253.636261 13.44599
253.789505 46.902168
253.878952 117.903702
253.967926 143.078293
254.059662 144012.5
254.146194 38.015869
254.17836 17.714279
254.277969 21.033331
254.452881 9.422101
254.566406 16.69338
254.579559 97.328194
254.68457 35.154301
254.710907 222.904099
254.75676 56.557678
254.779022 108.198898
254.808762 42.934212
254.841476 136.870407
254.901703 85.813972
254.92276 29.27014
254.939285 37.270611
254.993454 37.905209
255.008682 28.16534
255.133881 122.579002
255.161301 22.24229
255.235367 20.12121
255.248978 54.375759
255.309341 58.778641
255.385513 12.20288
255.402481 126.500198
255.469406 53.766239
255.510269 44.621799
255.531021 13.66667
255.547699 50.319172
255.56575 62.833328
255.598312 41.515499
255.824921 13.00833
255.864777 8.708333
255.921967 18.055559
256.137512 14.16447
256.154449 16.490391
256.212769 36.78632
256.326843 10.09643
256.36026 11.84355
256.447205 17.533331
256.527405 10.33333
256.618225 35.54475
256.794342 8.818548
256.850677 11.57908
256.887939 39.844002
257.140717 14.09058
257.401093 6.416667
257.436279 18.335779
257.64859 10.17754
257.845703 11.63362
257.922272 13.09886
258.391815 9.122549
258.489685 7.041667
258.705872 6.740942
258.738007 12.36667
258.755432 9.334401
258.800201 22.594139
259.238892 8.775641
259.427399 9.681159
260.004883 8.674319
260.79837 8.320652
261.229187 8.38313
268.086884 10.79167
269.549438 8.148809
273.320007 9.706699
275.04303 12.64706
280.560883 15.02222
290.555756 9.363637
297.607941 11.99212
317.032043 44.4291
329.971771 27.50877
388.937286 6.673077
621.112 14.63209
761.564575 31.388889
822.629944 9.716666
