>compound 5-oxo-6H-benzo[b][1]benzazepine-11-carboxamide
>formula C15H12N2O2
>ionization [M+H]+
>parentmass 253.097824
#inchi InChI=1S/C15H12N2O2/c16-15(19)17-12-7-3-1-5-10(12)9-14(18)11-6-2-4-8-13(11)17/h1-8H,9H2,(H2,16,19)
#inchikey CTRLABGOLIVAIY
#Ion_Source LC-ESI
#Instrument qTof
#Compound_Source Commercial
#PI Dorrestein
#Data_Collector Garg_Neha
#Scan -1
#Precursor_MZ 253.097
#ExactMass 252.09
#Charge 1
#CAS_Number N/A
#Pubmed_ID N/A
#Smiles NC(=O)N1c2ccccc2CC(=O)c3ccccc13
#INCHI_AUX N/A
#Library_Class 1
#SpectrumID CCMSLIB00000079030
#IonMode Positive
#UpdateWorkflowName UPDATE-SINGLE-ANNOTATED-GOLD
#LibraryQualityString Gold
#TaskID 278b19f5865741e282cec7349aa7e7a1
##Scan# 1158
#SpectrumFile NCP003352_G2_H11_BC7_01_15721.mzXML
#LibraryName NIHcollectionI_05062014.mgf
#MQScore -1
#Organism NIHcollectionI_05062014
#TIC_Query 0
#RT_Query -1
#MZErrorPPM -1
#SharedPeaks 0
#MassDiff 0
#LibMZ -1
#SpecMZ 253.097
#SpecCharge 0
#internalFilename spec-00000.mgf

>collision 10
48.961529 168.0
49.405399 164.0
51.724911 156.0
51.982887 160.0
53.675388 156.0
54.620026 152.0
56.629837 156.0
60.532101 152.0
61.134411 140.0
62.034058 148.0
63.665539 180.0
64.711578 164.0
64.876595 180.0
66.55291 188.0
66.653618 252.0
67.945282 208.0
69.944527 172.0
74.068596 176.0
84.90052 184.0
85.786751 176.0
86.337158 120.0
90.470482 160.0
92.488281 156.0
93.234352 196.0
95.994957 184.0
97.685204 160.0
98.144081 176.0
100.273148 184.0
101.314194 164.0
104.052971 220.0
105.951698 240.0
107.108231 236.0
111.471207 152.0
111.820305 152.0
114.398438 152.0
119.273048 208.0
120.187721 140.0
120.983269 180.0
132.137772 204.0
134.590195 144.0
135.077835 168.0
137.891266 140.0
138.966095 148.0
141.057358 156.0
142.878601 152.0
143.862839 208.0
145.483505 196.0
146.736923 184.0
147.074646 172.0
147.669006 148.0
151.003494 148.0
151.035294 164.0
152.063232 428.0
153.068283 312.0
154.068756 152.0
155.073349 168.0
155.098129 168.0
156.021576 152.0
162.339127 196.0
164.414993 172.0
165.07135 528.0
167.072159 792.0
169.058853 156.0
172.664581 152.0
174.137497 152.0
177.937393 148.0
178.061981 320.0
179.071655 724.0
180.006241 164.0
180.038284 160.0
180.081055 12876.0
180.218399 136.0
180.423813 128.0
180.869141 168.0
181.084656 2396.0
182.057495 208.0
182.096207 3240.0
183.099258 848.0
184.098755 152.0
184.704163 208.0
185.213043 200.0
190.069931 136.0
192.079803 324.0
193.087982 200.0
193.583115 140.0
195.066452 452.0
196.076492 292.0
207.011627 152.0
207.077484 176.0
207.880203 164.0
208.074905 9368.0
209.077789 972.0
210.092056 2964.0
211.098953 392.0
211.505829 180.0
212.027161 148.0
213.807404 168.0
225.717361 224.0
226.083633 132.0
235.195007 156.0
235.253006 144.0
236.070496 14320.0
236.282883 152.0
237.073608 1900.0
238.07338 436.0
238.401627 184.0
238.5215 152.0
243.070724 196.0
251.154984 260.0
253.097824 10232.0
253.165649 200.0
254.098755 844.0
254.178055 168.0
255.10228 188.0
262.10318 176.0
355.064056 196.0
1640.588379 148.0
1801.561523 148.0
1865.210083 152.0
1907.253662 160.0
1952.38562 228.0
