>compound MLS000701322-01!2-phenyl-1H-indole
>formula C14H11N
>ionization [M+H]+
>parentmass 194.094803
#inchi InChI=1S/C14H11N/c1-2-6-11(7-3-1)14-10-12-8-4-5-9-13(12)15-14/h1-10,15H
#inchikey KLLLJCACIRKBDT
#Ion_Source LC-ESI
#Instrument qTof
#Compound_Source NIH Pharmacologically Active Library
#PI Dorrestein
#Data_Collector VP/LMS
#Scan -1
#Precursor_MZ 194.099
#ExactMass 193.089
#Charge 1
#CAS_Number N/A
#Pubmed_ID N/A
#Smiles c1c([nH]c2ccccc12)c3ccccc3
#INCHI_AUX N/A
#Library_Class 1
#SpectrumID CCMSLIB00000086015
#IonMode Positive
#UpdateWorkflowName UPDATE-SINGLE-ANNOTATED-GOLD
#LibraryQualityString Gold
#TaskID d252d724072548979f1f6f1ced849daf
##Scan# 2353
#SpectrumFile p5-B03_GB3_01_18442.mzXML
#LibraryName Pharm_Active_Library.mgf
#MQScore -1
#Organism Pharm_Active_Library
#TIC_Query 0
#RT_Query -1
#MZErrorPPM -1
#SharedPeaks 0
#MassDiff 0
#LibMZ -1
#SpecMZ 194.099
#SpecCharge 0
#internalFilename spec-00000.mgf

>collision 10
45.038002 120.0
45.972427 132.0
46.25219 204.0
46.766609 176.0
46.928719 100.0
47.481155 140.0
48.000969 188.0
48.138958 160.0
49.028179 244.0
49.620838 208.0
49.86227 216.0
51.357407 48.0
51.550137 168.0
52.579803 140.0
53.194946 136.0
53.503128 104.0
53.613827 88.0
53.654636 48.0
53.787384 132.0
54.024109 208.0
54.568195 108.0
55.159344 148.0
55.333904 136.0
55.848827 148.0
56.349697 152.0
57.010487 152.0
57.481819 156.0
57.691753 152.0
58.53228 200.0
58.702946 144.0
58.831104 160.0
59.000675 224.0
59.014435 192.0
59.332882 148.0
59.813698 148.0
61.016685 88.0
61.409637 228.0
61.734474 104.0
61.854946 216.0
62.496811 192.0
63.385773 156.0
63.514187 216.0
63.574474 168.0
64.207634 164.0
65.161644 108.0
66.242508 172.0
66.453262 160.0
66.547394 268.0
67.018333 196.0
67.3339 80.0
67.656013 208.0
68.798553 60.0
68.937294 136.0
69.319542 168.0
70.268951 156.0
70.506065 144.0
70.852417 156.0
71.013336 256.0
71.839226 196.0
72.138115 68.0
72.395287 188.0
72.649521 272.0
73.171249 188.0
73.5019 140.0
74.923248 176.0
75.275093 120.0
75.894554 184.0
76.109703 172.0
76.130539 148.0
76.3582 92.0
76.56356 252.0
76.830238 148.0
77.2285 156.0
77.277481 36.0
77.3564 216.0
77.412262 40.0
77.750595 160.0
77.95079 208.0
78.49118 160.0
78.595245 68.0
78.747063 188.0
79.0299 148.0
79.279572 184.0
79.359337 212.0
80.335701 164.0
81.792542 180.0
81.855553 200.0
81.931198 192.0
82.356903 208.0
82.865219 128.0
83.077332 224.0
83.273361 32.0
83.842804 196.0
84.280746 136.0
84.421501 44.0
85.11599 144.0
85.548042 204.0
85.577492 136.0
85.697212 144.0
86.043938 132.0
86.265625 40.0
86.33773 224.0
86.376572 172.0
86.480186 100.0
86.682045 120.0
86.737648 136.0
87.56073 168.0
87.633377 92.0
87.905609 68.0
88.68734 168.0
89.038689 368.0
89.08326 212.0
89.152779 156.0
89.369019 192.0
90.045624 300.0
90.509056 156.0
90.751579 128.0
90.90522 148.0
91.057053 588.0
91.361214 120.0
91.418297 36.0
91.585831 144.0
91.669655 140.0
91.94426 136.0
92.056892 228.0
92.211632 152.0
92.286186 116.0
92.406677 120.0
92.584694 176.0
92.732208 208.0
94.476753 140.0
94.778778 108.0
97.186829 120.0
98.268967 140.0
99.111244 184.0
99.341217 92.0
101.018509 292.0
101.53727 160.0
102.04731 176.0
102.238396 152.0
102.473984 160.0
102.488091 92.0
104.759201 176.0
105.765633 160.0
106.614975 172.0
107.242683 52.0
107.440636 252.0
107.859825 128.0
108.995514 176.0
109.59684 200.0
110.018127 148.0
110.421402 120.0
110.932289 152.0
111.763954 92.0
111.951294 176.0
112.655746 116.0
112.818466 228.0
112.947456 36.0
113.792992 136.0
113.829086 164.0
113.941658 152.0
114.033028 56.0
114.686432 88.0
114.743988 288.0
115.057541 456.0
115.335297 164.0
115.356674 160.0
115.908836 92.0
115.970985 236.0
116.050034 2384.0
116.071747 184.0
116.303436 164.0
116.844955 164.0
117.05864 2872.0
117.245453 156.0
118.061882 176.0
118.083107 196.0
118.962807 100.0
119.067032 72.0
119.156082 112.0
119.208229 232.0
119.247353 168.0
119.279953 176.0
119.682419 208.0
119.706375 76.0
119.854492 48.0
119.924225 108.0
120.760445 212.0
121.415276 108.0
121.535927 148.0
122.873619 192.0
123.135208 180.0
123.7621 152.0
124.436111 116.0
124.531593 100.0
126.041992 168.0
126.475845 232.0
126.513893 68.0
126.917168 96.0
127.049492 92.0
127.312096 136.0
128.06192 500.0
128.376511 112.0
128.690155 100.0
128.726288 184.0
128.992874 128.0
129.103668 156.0
129.176041 92.0
129.377441 36.0
129.48613 212.0
129.830597 40.0
130.416336 160.0
130.495895 160.0
130.55957 52.0
131.30426 168.0
131.516449 180.0
132.046509 184.0
132.305069 128.0
132.492859 176.0
132.813782 216.0
133.266022 188.0
133.491272 160.0
133.606277 124.0
134.036819 168.0
134.558075 172.0
134.828323 112.0
135.784454 152.0
135.803009 200.0
137.111938 224.0
137.952209 92.0
137.968567 140.0
138.860687 124.0
139.052689 304.0
139.233841 152.0
139.880417 160.0
140.071533 172.0
141.068527 712.0
141.947662 212.0
142.065994 180.0
142.498322 56.0
143.672012 212.0
143.774612 72.0
144.32402 216.0
145.798233 104.0
145.831879 180.0
146.310562 172.0
147.08194 124.0
147.729538 212.0
147.981216 152.0
148.143478 132.0
149.097031 172.0
150.058502 172.0
150.759033 168.0
151.052582 588.0
151.196777 92.0
151.277557 112.0
151.502838 36.0
151.831284 140.0
152.063293 5516.0
152.110504 140.0
152.211639 92.0
152.241119 36.0
152.462204 140.0
152.516281 40.0
152.649033 128.0
153.067093 880.0
153.764984 36.0
153.97731 76.0
154.040222 152.0
154.068695 152.0
154.954376 176.0
155.060928 120.0
155.078278 180.0
155.125366 64.0
155.554504 156.0
156.058823 36.0
156.270218 128.0
156.825531 160.0
157.316925 200.0
157.586639 168.0
158.051697 188.0
159.43338 132.0
159.536423 136.0
160.755447 168.0
161.844894 76.0
162.397339 156.0
163.645035 204.0
163.871719 172.0
164.061813 156.0
164.509277 168.0
164.845825 172.0
164.935867 148.0
164.984436 180.0
165.038116 144.0
165.071045 8440.0
165.240173 28.0
165.275986 68.0
165.336151 148.0
165.511475 76.0
165.718933 60.0
165.775314 88.0
165.818878 56.0
165.870132 172.0
165.985504 44.0
166.044479 188.0
166.076202 1948.0
166.295914 84.0
166.722229 40.0
166.786484 128.0
167.085709 4352.0
167.182556 44.0
167.200562 84.0
167.303528 52.0
167.370468 56.0
167.612579 164.0
167.638351 196.0
167.707932 168.0
167.76207 64.0
167.950302 36.0
168.086426 960.0
168.329666 52.0
168.606079 68.0
169.058609 416.0
170.097931 52.0
170.354523 108.0
170.934784 192.0
172.400299 160.0
174.047943 124.0
174.54982 212.0
174.941833 36.0
175.321106 172.0
176.057434 308.0
176.1073 108.0
177.064911 560.0
177.991638 124.0
178.075897 772.0
179.076431 576.0
179.568237 192.0
180.00322 112.0
180.099365 48.0
180.163483 48.0
180.254318 52.0
182.057129 188.0
183.084412 132.0
184.171295 236.0
189.284134 104.0
190.13118 120.0
190.930618 176.0
190.969131 132.0
191.071289 544.0
192.046036 132.0
192.082001 1892.0
192.13707 44.0
192.540054 176.0
192.575958 136.0
192.617386 76.0
192.99324 176.0
193.023651 124.0
193.090012 11452.0
193.433105 148.0
193.488464 128.0
193.615845 56.0
193.854874 168.0
194.025925 104.0
194.050873 132.0
194.094803 6032.0
194.290359 80.0
194.602997 64.0
194.666855 68.0
194.705734 48.0
195.098373 880.0
195.222626 96.0
195.447937 48.0
195.55925 72.0
196.048828 116.0
196.101639 308.0
196.621094 56.0
205.076462 180.0
206.027054 124.0
206.387161 100.0
207.750397 60.0
208.017273 48.0
253.097275 116.0
257.335571 76.0
271.112946 28.0
281.226807 160.0
302.560364 32.0
321.49707 72.0
390.055939 28.0
470.073608 56.0
597.633545 64.0
605.820801 40.0
750.557434 44.0
904.552795 172.0
910.314392 152.0
954.84375 160.0
995.41925 32.0
1084.378906 140.0
1088.288574 220.0
1095.015625 148.0
1096.695679 88.0
1114.995483 204.0
1122.811279 200.0
1124.012085 172.0
1137.168579 136.0
1143.533325 224.0
1144.576782 148.0
1177.398071 232.0
1183.03894 148.0
1183.935913 136.0
1186.779541 128.0
1195.867798 100.0
1197.169067 172.0
1199.876831 160.0
1204.990845 136.0
1214.509033 176.0
1236.189819 124.0
1263.680664 180.0
1264.154785 116.0
1281.380249 144.0
1297.417236 140.0
1303.158569 180.0
1309.229492 192.0
1316.621338 168.0
1327.766235 192.0
1330.733154 160.0
1332.20105 104.0
1337.516479 232.0
1341.296875 156.0
1342.281128 184.0
1359.03833 196.0
1362.033569 200.0
1369.705322 152.0
1370.375732 124.0
1385.454346 208.0
1386.50647 164.0
1388.626831 120.0
1389.294312 124.0
1389.873047 164.0
1394.231934 172.0
1399.773804 200.0
1402.500488 148.0
1422.486938 148.0
1435.261353 128.0
1452.534546 180.0
1454.750244 184.0
1457.302002 188.0
1464.094604 196.0
1475.417603 228.0
1479.541138 124.0
1484.084229 224.0
1485.595093 184.0
1487.851196 104.0
1488.020142 184.0
1491.807495 184.0
1497.4552 68.0
