>compound Glimepiride
>formula C24H34N4O5S 
>ionization [M+H]+
>parentmass 491.2322676400905
#inchi InChI=1S/C24H34N4O5S/c1-4-21-17(3)15-28(22(21)29)24(31)25-14-13-18-7-11-20(12-8-18)34(32,33)27-23(30)26-19-9-5-16(2)6-10-19/h7-8,11-12,16,19H,4-6,9-10,13-15H2,1-3H3,(H,25,31)(H2,26,27,30)
#inchikey WIGIZIANZCJQQY
#Ion_Source LC-ESI
#Instrument qTof
#Compound_Source Isolated
#PI Sirenas
#Data_Collector Ed Esquenazi 
#Scan -1
#Precursor_MZ 491.236
#ExactMass 0.0
#Charge 1
#CAS_Number N/A
#Pubmed_ID N/A
#Smiles N/A
#INCHI_AUX N/A
#Library_Class 3
#SpectrumID CCMSLIB00000005742
#IonMode Positive
#UpdateWorkflowName UPDATE-SINGLE-ANNOTATED-BRONZE
#LibraryQualityString Bronze
#TaskID d19310cd93df49b68e9fcbec27720eb5
##Scan# 3
#SpectrumFile Glimepiride.mgf
#LibraryName fda_library.mgf
#MQScore -1
#Organism fda_library
#TIC_Query 0
#RT_Query -1
#MZErrorPPM -1
#SharedPeaks 0
#MassDiff 0
#LibMZ -1
#SpecMZ 491.236
#SpecCharge 0
#internalFilename spec-00000.mgf

>collision 10
102.479546 7.735577
102.499336 19.506941
102.575249 17.5
102.621056 8.002717
102.680992 2.580357
103.054451 4352.119141
103.095787 24.15559
103.122101 13.54223
103.196304 9.613426
103.221046 15.5125
103.231224 28.6187
103.256821 11.66898
103.284676 35.5
103.293724 19.42045
103.304123 3.3125
103.326675 19.382811
103.344734 2.580357
103.35537 5.051136
103.376724 4.0
103.407684 3.1125
103.440178 4.53125
103.468559 4.1
103.502838 5.340278
103.555084 14.44676
104.075279 8.5625
105.713577 11.15341
106.066017 93.694221
108.080109 1072.332031
108.12368 13.50658
108.572708 15.5
108.750404 9.575
108.7995 3.520833
109.009682 54.471149
109.02993 6.033088
109.064651 1284.884033
109.150772 10.72727
109.190628 10.22727
109.266174 4.5
109.330338 18.9025
109.535446 13.86058
110.096893 3.504808
112.069489 31.503201
113.373741 13.78125
114.127754 303.042786
118.066681 376.407196
118.512932 9.556818
119.048386 247.898605
119.226936 7.704167
119.468765 7.2
119.586716 5.704167
120.082108 186.910507
121.064629 414.45871
121.101677 10.1125
121.903229 15.06806
123.089478 38.540218
123.233727 20.765631
123.966843 19.19758
124.075706 1932.369019
124.126358 11.0
124.137337 3.025
124.261398 7.5
124.401054 21.785721
124.513405 7.266448
124.748749 36.836811
124.925156 3.541667
125.127701 9.086538
125.346718 61.776989
125.372986 20.25568
125.396217 13.36422
125.406479 20.81818
125.416969 46.75
125.43222 31.460461
125.455032 68.555801
125.47274 8.28125
125.483826 20.8125
125.504684 46.684521
125.517159 3.006944
125.533936 21.33333
125.573608 17.361111
125.595123 9.007353
125.604057 11.76471
125.622414 11.01389
125.641655 8.723214
125.657677 6.797794
125.686546 34.57756
125.714638 6.581731
125.743332 23.04545
125.78743 7.102273
125.829124 8.446428
125.865852 9.827206
125.891602 8.0
125.942352 15.00781
125.967148 13.16346
126.061935 118.878098
126.091637 35738.800781
126.139145 201.139999
126.184525 27.5
126.213196 57.23793
126.233917 9.877943
126.256973 65.408127
126.272598 84.597237
126.288689 107.7379
126.33065 97.655281
126.355606 32.410011
126.379272 55.58633
126.396309 11.00781
126.408356 60.160938
126.427582 29.962049
126.441612 16.05348
126.4571 27.050211
126.481003 118.017403
126.502289 67.227943
126.523132 54.18261
126.541252 9.8025
126.550743 51.39127
126.586464 14.36012
126.598549 41.96854
126.611259 38.06897
126.629005 18.15625
126.662735 52.673611
126.684959 21.207109
126.705185 49.409069
126.716614 27.05191
126.732285 16.053881
126.748718 45.788559
126.805466 56.484051
126.861633 18.098789
126.93988 16.83333
126.966583 26.393379
127.077095 10.65385
127.089973 133.472397
127.097633 238.382294
127.120628 65.195396
127.183014 11.55625
127.533539 34.313568
128.011902 28.661539
128.049316 118.8013
128.170319 26.923559
128.193314 4.004167
128.291412 21.050301
129.139145 4.6125
129.401443 6.545455
131.034119 12.46154
131.059158 65.316353
131.085464 84.161186
131.216309 3.53125
131.320648 15.125
133.614456 11.02083
134.055176 47.026791
144.267227 5.889423
145.221573 6.581731
145.778214 15.55921
146.06012 1243.215942
146.093414 5.5
146.115036 9.083333
146.181015 12.125
146.244827 19.59552
146.636368 7.591912
147.180466 11.18182
150.052887 39.360119
150.183594 3.505682
151.02449 77.5
151.085358 289.658508
151.208542 21.25806
151.221375 13.70439
151.234314 33.201679
151.251175 4.53125
151.275406 13.44643
151.569885 19.740129
151.636429 5.235577
152.070892 4613.49707
152.121521 15.13281
152.152267 37.0625
152.220459 22.08333
152.318542 5.0
152.335831 11.7025
152.385498 30.057341
152.41745 18.48214
152.466751 37.202431
152.48175 16.02632
152.534882 7.166667
152.562027 4.666667
152.598694 13.45043
152.705353 4.5625
152.71759 11.525
152.807251 7.946429
152.851379 14.22917
152.864838 6.53125
153.075394 15.15385
153.260284 12.12981
153.729813 12.18182
154.280136 6.020833
154.966812 17.55625
156.137711 14.0152
157.083313 148.320297
160.078445 35.660709
161.080902 56.145088
166.031097 109.876701
166.713928 67.842438
167.016693 2402.106934
167.072983 23.180189
167.130554 18.16118
167.252945 24.210529
167.275452 14.6
167.318192 11.6875
167.387741 8.104167
167.443558 2.506944
167.604065 7.0
168.217117 5.120193
169.36969 11.57031
169.677704 19.425711
174.063126 207.074005
174.288803 4.6875
178.737289 9.1125
179.0858 114.3983
179.122925 3.625
180.13884 5.142045
180.162445 3.525
180.171783 11.59879
180.260513 20.30769
180.332169 23.673611
180.353943 12.03634
180.424026 3.006944
180.761017 27.08333
181.096985 4605.019043
181.152756 27.58947
181.227615 10.16964
181.279968 14.76078
181.311539 13.39063
181.34906 8.6125
181.430099 23.5
181.441833 40.417831
181.486176 9.017858
181.536179 30.17514
181.86145 25.281429
181.918427 22.23077
182.096619 37.85796
182.241684 12.0025
182.89534 3.673611
183.074814 73.260406
184.045609 279.520905
184.418076 9.7
184.772369 3.005682
185.098068 34.012501
192.009521 52.58173
193.367783 19.236839
199.575394 17.130211
208.807449 19.464939
208.982162 9.509615
210.020691 1333.062012
210.082321 5.375
210.10318 8.460227
210.185867 15.0
210.251434 27.816669
210.311966 25.077881
210.407837 14.54464
210.518539 15.59375
210.548752 5.6
217.039337 84.797791
217.082428 2.5125
228.035904 9.846154
229.062317 172.889404
243.148392 40.0
243.709869 5.00329
253.134293 36.03083
253.555969 6.0
254.132446 23.50543
264.103424 66.378067
264.133911 11.575
270.132538 31.67778
271.141846 229.858795
271.185638 3.505682
287.13858 220.224792
287.32309 8.660714
288.556183 8.504167
292.095215 98.288918
292.11203 42.766449
292.319519 19.471149
292.469666 20.58004
333.213684 11.57143
333.994781 10.575
334.110107 80.164688
335.104431 379.996399
335.396088 35.361698
335.758362 19.086439
335.914764 17.13636
336.070831 17.1875
352.301697 2.53125
353.033417 9.508928
1485.197876 27.5625
