>compound EntecavirHydrate
>formula C12H15N5O3 
>ionization [M+H]+
>parentmass 278.125
#inchi InChI=1S/C12H15N5O3/c1-5-6(3-18)8(19)2-7(5)17-4-14-9-10(17)15-12(13)16-11(9)20/h4,6-8,18-19H,1-3H2,(H3,13,15,16,20)/t6-,7-,8-/m0/s1
#inchikey QDGZDCVAUDNJFG
#Ion_Source LC-ESI
#Instrument qTof
#Compound_Source Isolated
#PI Sirenas
#Data_Collector Ed Esquenazi 
#Scan -1
#Precursor_MZ 278.125
#ExactMass 0.0
#Charge 1
#CAS_Number N/A
#Pubmed_ID N/A
#Smiles N/A
#INCHI_AUX N/A
#Library_Class 3
#SpectrumID CCMSLIB00000004799
#IonMode Positive
#UpdateWorkflowName UPDATE-SINGLE-ANNOTATED-BRONZE
#LibraryQualityString Bronze
#TaskID d19310cd93df49b68e9fcbec27720eb5
##Scan# 3
#SpectrumFile EntecavirHydrate.mgf
#LibraryName fda_library.mgf
#MQScore -1
#Organism fda_library
#TIC_Query 0
#RT_Query -1
#MZErrorPPM -1
#SharedPeaks 0
#MassDiff 0
#LibMZ -1
#SpecMZ 278.125
#SpecCharge 0
#internalFilename spec-00000.mgf

>collision 10
100.377594 4.741667
106.485413 7.208333
106.638802 12.70383
106.947212 12.60682
107.034698 1697.151001
107.051216 42.738682
107.064148 10.91667
107.080368 7.355556
107.14875 11.00595
107.25708 11.25
107.274864 11.07407
107.336121 8.102273
107.404793 43.415249
107.480339 4.763889
107.491165 13.72003
107.676987 5.833333
108.01796 17.41588
108.078804 16.63158
108.413086 12.24537
108.445465 16.683741
108.517296 14.11204
108.543015 3.733333
108.683418 8.613637
108.797165 6.696428
108.880455 7.813406
109.050911 3359.975098
109.094681 26.719049
109.109657 7.678764
109.120361 3.708333
109.1567 4.66886
109.168564 8.416667
109.189575 12.55408
109.269485 32.439289
109.28759 11.66667
109.331238 9.748984
109.33754 18.94565
109.357582 9.557099
109.389099 23.28236
109.414917 11.02976
109.43528 70.695442
109.450172 32.331001
109.461678 4.761364
109.494354 14.72149
109.539459 15.48333
109.557465 15.01437
109.586014 6.125
109.598091 36.16478
109.607391 17.61458
109.622444 9.102273
109.637024 10.9467
109.660378 43.375408
109.680634 38.029968
109.698944 10.04167
109.705284 10.47115
109.717636 25.592649
109.751167 18.261881
109.803802 9.338889
109.811928 16.33333
109.972458 12.04418
110.001579 7.725
110.034996 29537.429688
110.06781 21.773371
110.110725 23.872721
110.140602 21.24242
110.163864 25.532801
110.19313 70.53997
110.213585 49.40556
110.229012 45.823009
110.239357 40.793419
110.253853 96.747017
110.272064 15.05762
110.289047 50.376068
110.320343 80.049301
110.332382 28.434179
110.361488 53.979858
110.395615 43.79245
110.417923 9.666667
110.437088 43.03849
110.467293 30.578569
110.479851 7.98077
110.487724 17.91667
110.514336 16.18939
110.537308 46.60833
110.545631 12.2402
110.553001 23.01235
110.560562 16.004379
110.607712 25.775551
110.634529 31.641109
110.641106 18.73387
110.684349 10.39461
110.719467 9.631173
110.744797 17.04003
110.894966 16.744049
110.908318 5.005952
111.001106 12.93202
111.01091 12.10417
111.03801 198.3367
111.146622 7.407407
111.271362 12.73667
111.344727 11.44048
111.420822 12.60606
111.572441 10.05556
111.719475 6.720238
111.859253 3.333333
112.087502 12.01754
112.204926 5.773809
112.264496 8.547619
112.291626 12.89302
116.044357 11.7947
116.577202 8.351191
123.027306 30.323271
125.041672 12.40333
126.090286 13.36012
128.052063 51.754829
131.834274 11.04545
133.415924 5.041667
133.435669 6.160088
133.477798 12.15
133.611954 5.520833
133.979523 11.03716
134.045486 2370.418945
134.095001 14.44626
134.198273 26.02519
134.225647 14.01653
134.235703 38.997662
134.255661 50.09853
134.268906 33.552582
134.28157 24.56019
134.298477 56.45039
134.31813 71.976532
134.329041 20.625
134.338913 5.598684
134.357269 22.926279
134.364563 35.823582
134.38678 141.302399
134.404633 17.52035
134.426514 225.761703
134.44873 35.19212
134.490204 189.289307
134.511902 33.97105
134.520035 10.36594
134.540222 4.673611
134.548584 26.24338
134.564423 7.340278
134.572495 16.085711
134.595169 39.48156
134.605499 21.36458
134.634415 32.685131
134.653229 6.449713
134.66153 9.063725
134.673691 7.692308
134.693634 28.651739
134.719391 90.229607
134.738052 14.00126
134.806274 5.531863
134.818787 13.1974
134.941879 16.68561
134.964249 10.83
135.000168 38.010109
135.011627 76.338463
135.030319 84632.53125
135.091522 40.125
135.126038 17.667931
135.145706 4.683333
135.182602 12.40741
135.205261 21.422171
135.277771 20.70833
135.328293 27.485901
135.358063 136.400696
135.413239 23.0
135.44838 58.14307
135.467102 162.479202
135.529678 47.98444
135.553421 92.991341
135.572021 15.53333
135.586548 68.898819
135.602798 30.0
135.616058 72.95414
135.645813 46.666859
135.658005 11.05972
135.678802 53.810131
135.684601 6.049603
135.741592 73.625282
135.763687 25.306721
135.772278 9.972826
135.787399 39.879421
135.807785 5.884804
135.818359 22.667219
135.858917 12.34295
135.91156 22.697321
135.935043 6.703947
135.980591 13.66667
136.031967 663.727478
136.180176 27.46833
136.390045 31.91013
136.488159 11.36905
136.591614 13.3795
136.703262 9.121212
136.7211 11.11265
136.837906 11.33426
136.9431 9.022223
136.952026 41.32069
137.074051 8.0
137.325882 7.531863
137.485596 5.028846
137.523392 15.70833
137.587738 8.380815
137.776718 8.703947
137.878601 12.07738
137.996094 4.335
138.027115 13.12037
138.069839 7.535
138.3396 14.69551
141.334381 5.774123
141.47226 10.17339
143.056595 53.945019
147.826187 5.444445
149.042938 34.779209
149.82782 9.222222
150.302429 6.340278
150.883041 9.012097
151.090866 11.34167
151.113876 8.732527
151.122452 22.004869
151.154922 16.190479
151.165527 49.100529
151.188507 57.529659
151.203644 23.334221
151.215866 25.16263
151.243958 50.434551
151.264587 63.447849
151.278 12.89653
151.289276 16.80254
151.297745 23.66773
151.317581 65.659729
151.340134 27.629021
151.361862 70.429672
151.381531 20.028851
151.392792 20.41927
151.428879 18.62888
151.439224 20.722019
151.454346 34.707489
151.482452 6.005952
151.49472 12.0
151.528671 15.72185
151.54509 22.375
151.561295 8.740942
151.584915 27.759041
151.605316 10.615
151.647293 15.01071
151.720993 26.79167
151.807953 28.71599
151.915482 9.240079
151.940735 14.36925
151.974686 11.34041
151.98259 6.388889
152.023483 36.856129
152.056931 58771.851562
152.123337 17.92647
152.280441 16.370371
152.337875 63.7715
152.352325 15.36012
152.3741 33.47863
152.408188 34.563789
152.431427 33.399601
152.455231 108.344803
152.507965 129.453094
152.528564 20.337299
152.536667 111.225304
152.560013 84.851547
152.578522 16.871531
152.598404 52.666031
152.621597 78.262421
152.642471 43.762791
152.662216 12.77929
152.691605 37.760441
152.707458 23.27832
152.718124 12.42976
152.739502 35.35144
152.757935 12.77564
152.773315 55.205799
152.837921 17.15686
152.849335 66.546783
152.859375 31.453671
152.892624 21.385651
152.954147 17.00765
152.963577 23.688101
152.984634 9.347222
153.041672 52.52742
153.059555 416.377808
153.138809 25.533661
153.488266 30.131531
153.522064 21.59375
153.57428 12.00068
153.718887 14.67262
153.865326 32.641479
153.906418 13.4064
153.988434 17.02273
154.01001 7.670455
154.174118 5.0
154.312378 5.720238
154.692978 16.44022
154.814423 7.714285
154.848785 22.13047
154.962936 10.56466
155.169235 14.64844
156.441711 12.8648
156.685959 7.844298
160.048462 45.55275
162.701553 4.001812
173.056305 32.716671
199.466431 11.0
225.076019 5.016667
242.350769 9.46558
267.929749 21.125
323.648163 10.02564
655.42627 7.166667
680.013184 3.347222
776.343933 12.72854
899.91272 11.0496
938.710754 8.006945
1311.497314 4.111111
1512.412109 11.04167
1595.955566 8.176471
1626.6073 9.79594
