>compound Aprepitant
>formula C23H21F7N4O3 
>ionization [M+H]+
>parentmass 535.1574645240905
#inchi InChI=1S/C23H21F7N4O3/c1-12(14-8-15(22(25,26)27)10-16(9-14)23(28,29)30)37-20-19(13-2-4-17(24)5-3-13)34(6-7-36-20)11-18-31-21(35)33-32-18/h2-5,8-10,12,19-20H,6-7,11H2,1H3,(H2,31,32,33,35)/t12?,19-,20+/m0/s1
#inchikey ATALOFNDEOCMKK
#Ion_Source LC-ESI
#Instrument qTof
#Compound_Source Isolated
#PI Sirenas
#Data_Collector Ed Esquenazi 
#Scan -1
#Precursor_MZ 535.16
#ExactMass 0.0
#Charge 1
#CAS_Number N/A
#Pubmed_ID N/A
#Smiles N/A
#INCHI_AUX N/A
#Library_Class 3
#SpectrumID CCMSLIB00000005690
#IonMode Positive
#UpdateWorkflowName UPDATE-SINGLE-ANNOTATED-BRONZE
#LibraryQualityString Bronze
#TaskID d19310cd93df49b68e9fcbec27720eb5
##Scan# 3
#SpectrumFile Aprepitant.mgf
#LibraryName fda_library.mgf
#MQScore -1
#Organism fda_library
#TIC_Query 0
#RT_Query -1
#MZErrorPPM -1
#SharedPeaks 0
#MassDiff 0
#LibMZ -1
#SpecMZ 535.16
#SpecCharge 0
#internalFilename spec-00000.mgf

>collision 10
100.039268 658.584106
100.050346 238.730606
100.447403 15.016
101.021118 20.471939
103.054337 52.491211
103.281044 9.141297
104.463684 1.880208
105.071571 21.640909
106.155396 18.760151
107.02832 64.386139
107.213654 4.75737
108.037285 161.796997
108.706512 2.257813
108.847946 3.000919
109.044884 8230.130859
109.088242 35.924858
109.098595 3.015625
109.105774 14.44575
109.141785 4.671875
109.149559 13.46507
109.166206 12.5437
109.173668 17.50625
109.196877 7.355035
109.235161 26.907631
109.265816 3.418968
109.273354 4.289474
109.281181 7.785156
109.302208 2.750822
109.335556 15.15506
109.342522 11.40329
109.386421 1.333333
109.437019 4.555059
109.458954 8.790625
109.465477 14.92105
109.532005 14.87895
109.658913 5.316332
109.72068 4.450447
110.333832 7.159091
111.055092 383.949097
111.415108 14.61002
112.050415 587.505981
112.108131 1.001042
112.290199 4.681713
113.053528 34.420059
113.067215 19.88061
115.056602 31.974039
115.53167 4.433681
116.044266 13.75368
116.052437 52.228378
117.643776 20.5459
118.063629 16.60573
120.036217 29.599409
121.044815 1170.865967
121.093712 5.913281
121.296799 5.505012
121.342674 5.76392
121.407669 8.583019
121.423874 12.48011
121.442368 8.183867
121.515388 4.430059
121.538208 5.5062
121.588058 4.043269
121.731194 2.45
121.994492 13.64063
122.040802 11178.629883
122.087845 58.581409
122.094948 2.13847
122.103043 10.5792
122.157219 17.866381
122.165718 15.70888
122.175644 1.007813
122.19046 12.05632
122.196838 4.5
122.203728 12.29287
122.214607 7.975806
122.226219 4.389062
122.259064 12.77524
122.29187 19.50071
122.304588 9.917553
122.3209 4.203125
122.333694 17.252159
122.346046 25.24382
122.383514 18.45237
122.39621 14.14449
122.40583 14.67543
122.459518 23.386499
122.479904 19.887501
122.500816 36.593189
122.525833 7.753572
122.562599 15.97191
122.57489 14.45313
122.603081 8.857314
122.617935 18.56513
122.668045 10.06174
122.726189 3.465144
122.733955 26.16692
122.772659 11.69375
123.004486 14.20012
123.024429 12592.360352
123.058464 1196.765015
123.102303 12.19501
123.11451 7.041667
123.126945 14.08363
123.142395 27.87138
123.158379 35.987831
123.179626 12.75781
123.188354 19.654909
123.209534 26.11927
123.217644 5.686298
123.224274 9.525
123.252998 27.031639
123.268661 30.886379
123.28051 4.175
123.288155 14.22074
123.298737 30.3354
123.307938 20.17103
123.332565 8.540082
123.345505 12.79536
123.372749 31.447161
123.394493 37.002941
123.451897 4.539402
123.502266 9.528125
123.530418 19.56699
124.054703 689.158875
124.074913 0.75142
124.120911 12.85215
124.456245 4.875
124.734634 4.517578
125.057343 4.105263
125.179939 30.627661
126.033875 18.565479
126.066734 46.780849
127.054626 9.361634
127.061424 109.252296
128.052094 32.146191
128.926331 31.96409
130.064194 118.191101
131.048676 11.00223
131.070374 77.716187
132.057907 47.332142
132.080414 427.775391
133.044937 449.061615
133.29657 4.901401
133.308304 4.271875
134.051788 794.229614
135.049454 383.610199
135.05899 317.724091
135.310074 1.265625
135.352631 4.071368
135.42543 1.500822
135.595535 4.421113
136.031311 540.825012
136.056976 1499.704956
136.4496 2.53125
136.590225 12.25284
137.040833 940.763611
137.225601 5.654588
137.237534 12.9269
137.963455 4.125446
138.029282 86.333923
138.070023 91.103088
139.061371 302.57309
140.04332 7.975781
140.364975 18.467609
140.37442 7.645011
140.455048 7.547594
140.467575 3.840909
140.477554 20.17029
140.598602 6.155331
141.048584 27.707291
141.077087 8897.953125
141.126648 53.580952
141.141388 28.0912
141.173096 8.62963
141.2146 0.626736
141.228485 15.44083
141.297791 12.25174
141.314926 22.525419
141.325546 19.496679
141.337799 11.99179
141.454803 12.39113
141.592407 11.83026
142.001175 6.0
142.058167 50.430729
142.067993 3.445313
143.059021 120.787903
144.069061 251.212204
144.666885 4.21007
146.040009 539.145874
147.032242 7.138432
147.058212 138.369705
147.083313 16.879021
148.055801 2023.026001
149.036621 49.26984
149.047119 17.52206
149.127319 8.410156
149.153122 4.505208
149.197937 12.2843
149.242569 16.390631
149.276245 28.609501
149.306244 10.62618
149.340134 5.260045
149.362656 55.740261
149.399033 12.13778
149.477676 5.600347
149.808136 20.003799
150.037506 316.589813
150.071579 15462.94043
150.106934 2.145833
150.127609 113.613503
150.186157 19.793489
150.209 23.092699
150.222748 15.36058
150.238388 46.453831
150.277344 23.80282
150.287201 5.211746
150.309708 55.460369
150.322388 11.502
150.33287 7.435096
150.37413 21.19014
150.398331 49.162258
150.435394 2.395833
150.459518 24.238461
150.498322 13.38181
150.515976 21.39526
150.540909 6.691576
150.563538 11.13506
150.582336 24.041401
150.68663 9.776864
150.849274 13.6321
151.054993 2202.698975
151.078735 4995.227051
151.148148 6.004823
151.205322 26.7805
151.28537 27.2761
151.294937 9.224138
151.337692 16.21266
151.364685 7.020162
151.372116 15.80475
151.41037 24.566219
151.439514 18.596239
151.486008 10.78948
151.666122 3.92889
151.704971 24.504101
151.756226 13.07965
152.063324 1111.295044
152.288132 10.5199
152.518234 7.315217
152.859512 4.131945
153.038574 63.022369
153.075363 91.102547
153.604507 4.767241
154.77095 4.360137
157.072433 282.153198
157.234131 5.818182
157.492126 5.670363
159.033508 31.94136
159.056808 24.11899
159.087387 505.241211
160.028549 16.324221
160.05513 306.176514
160.106369 1.445313
161.06337 898.263489
161.081253 20.9592
161.245468 11.36391
161.362656 10.19334
161.428024 4.38847
161.463516 4.258311
162.070618 1687.612061
162.184753 13.07988
162.291214 1.375744
162.417053 7.66624
163.066467 1306.69397
163.131989 8.418064
163.151871 9.010045
163.227692 4.0
163.51532 14.51513
163.605713 7.125
163.702011 5.641633
163.735382 11.25028
163.913757 6.890625
163.939606 2.506696
164.020264 19.73193
164.03299 16.38125
164.050735 13360.400391
164.086884 15.13035
164.100983 25.16502
164.122238 15.932
164.165695 11.26401
164.179779 18.546881
164.189224 2.207201
164.209381 19.28182
164.24826 50.67506
164.26091 9.477045
164.301193 25.3139
164.33226 19.007139
164.344681 19.073759
164.35791 20.06164
164.37886 16.954321
164.38974 10.00193
164.408356 4.458807
164.442764 5.78125
164.460876 7.364583
164.497025 5.268674
164.588593 21.238091
164.604782 17.55714
164.631897 36.391472
164.818314 5.025284
165.081787 34.061779
165.351318 8.045139
165.697083 3.296875
166.065857 1183.23999
166.226593 4.735294
167.067764 7.143518
168.059753 11.96034
168.081329 104.9077
171.055237 14.81481
171.087509 697.621521
171.700867 9.198255
171.863846 4.0
172.054108 57.858002
172.075653 85.853737
173.051208 156.649597
174.070099 287.292389
175.066635 145.708298
175.547348 25.189739
176.068146 52.55711
176.085327 29.001141
177.028015 18.02257
177.053375 142.883804
177.08046 146.528702
177.090332 2.347222
177.649429 6.451923
177.932083 3.145693
177.952377 31.442829
177.979477 257.669189
177.996063 26.09107
178.020401 204.946899
178.03978 93.285339
178.066086 6452.533203
178.130539 311.372314
178.147003 144.902893
178.166321 231.747696
178.176834 62.788849
178.216156 309.620605
178.238464 8.007031
178.248749 138.449005
178.266647 168.564301
178.29277 218.104401
178.306625 8.377084
178.322845 46.646221
178.336594 149.985199
178.353546 142.783005
178.36937 37.12534
178.383881 41.358311
178.410477 85.356949
178.432632 48.754761
178.445541 50.927792
178.467773 12.25231
178.501312 230.587097
178.53775 184.414795
178.568741 29.80801
178.593018 44.642441
178.617676 57.802979
178.703247 3.000347
178.767578 69.369797
178.813156 41.095482
178.854004 40.078232
178.872772 83.656837
178.900452 25.76144
178.922791 175.086304
178.938766 41.625019
178.956207 121.6978
179.075378 374734.6875
179.190643 6.136837
179.471802 238.664307
179.51239 107.586197
179.544876 102.986298
179.559296 271.582794
179.583694 48.27639
179.603912 207.082199
179.623947 90.954689
179.645569 9.487904
179.660019 136.610397
179.67627 73.701591
179.694061 112.117996
179.71347 80.729233
179.725357 55.830299
179.744324 226.073593
179.763687 77.604263
179.782288 131.1017
179.822342 87.655708
179.840134 15.77078
179.850891 48.62088
179.877151 148.204102
179.958374 15.77021
179.990295 13.29091
180.006195 112.834503
180.301956 6.628205
180.430786 81.44278
180.457626 33.845329
180.485535 21.99844
180.497849 78.73938
180.562515 8.747143
180.577484 21.936279
180.589233 63.94788
180.638031 43.625252
180.650024 4.759375
180.674896 61.30761
180.724304 19.28006
180.791779 7.625381
180.804596 30.336821
180.826965 50.533409
180.855545 53.815399
180.886719 43.734341
180.897446 8.014286
180.977005 22.719139
181.031418 3.878801
181.158875 20.00827
181.259415 29.42086
181.290039 19.65921
181.406799 17.5
181.56076 8.896731
181.572327 17.14786
181.689301 8.25504
181.798935 23.889561
181.968781 4.301136
182.022293 3.875
182.033829 38.269451
182.097366 402.577911
182.122925 16.13776
182.130981 26.57781
182.180939 18.287161
182.344254 1.140625
182.37262 4.740115
182.748154 9.825625
183.336975 3.88
184.015915 1.8
184.025482 2.734375
184.72023 18.267719
185.383118 4.27796
185.600906 9.511759
185.818314 4.126953
186.066406 2092.292969
186.430695 6.826705
186.45018 12.24781
186.768066 8.125579
187.177231 5.066483
187.454544 6.417014
187.829987 6.176042
187.984604 18.100451
188.083527 6.664063
188.832321 3.870536
189.017624 10.40028
189.044937 383.452515
189.082291 138.145599
190.076416 814.346313
190.528809 6.162071
190.917191 3.705357
191.057327 37.335011
191.116455 10.45868
191.642776 4.972278
192.053635 32.246208
192.082001 8668.40625
192.141678 44.403961
192.158218 28.7717
192.184036 12.35959
192.215805 17.33358
192.254501 44.53405
192.277863 12.12838
192.290634 8.571676
192.307236 17.72451
192.319931 7.13587
192.376358 24.976669
192.406128 4.339286
192.440063 3.835069
192.475479 17.559919
192.514832 11.50798
192.535294 13.50532
192.570328 10.7686
192.928802 12.16724
193.111542 7.094727
193.838303 30.176041
194.829178 7.615385
194.962067 6.895089
195.02475 32.794182
195.069321 18.62705
195.117584 8.259007
195.345566 1.03125
195.962585 11.3598
196.043167 39.447021
196.07692 2403.554932
196.233658 4.01398
196.359253 14.73026
196.461182 6.430804
196.50061 5.805
197.084366 2517.270996
197.804413 4.258333
197.905746 1.015625
199.065247 115.481003
200.023132 28.84956
200.07518 52.098129
200.59729 7.105537
201.032242 2125.803955
201.075851 106.2276
201.466293 4.571429
201.799652 19.730841
201.851639 3.885045
203.061356 23.84137
203.08374 17.069441
203.102097 14.77079
204.056503 557.266785
204.092758 218.073105
204.131638 1.126736
204.151535 4.87843
204.869095 13.25692
204.906723 11.73276
204.93689 13.19732
204.957336 7.675781
204.972458 14.13004
205.032318 9.442522
205.073608 13.52515
205.137146 63.83527
205.197876 7.450625
205.377579 14.99745
205.597672 13.02321
205.825104 3.659206
205.891098 12.08675
206.02565 12.53735
206.072632 14035.730469
206.204346 4.90625
206.228165 45.75716
206.253342 11.7934
206.279541 2.774698
206.306976 7.154588
206.34549 11.33176
206.384155 19.340231
206.39711 48.480171
206.429794 13.32653
206.444458 4.75463
206.465836 13.50541
206.488678 1.765625
206.521317 8.431818
206.541794 23.284189
206.554443 4.87625
206.656479 15.624
206.749451 12.75018
206.826355 27.56152
206.954971 9.126041
209.092667 12.05013
210.060043 20.54306
210.092514 601.979004
210.201004 12.31964
212.065964 19.83684
214.073349 43.27108
214.098267 13.09501
216.056152 1341.520996
216.090286 157.036499
216.274979 7.633065
216.291672 9.485303
216.547272 9.375168
217.076004 51.028389
218.072571 833.180481
219.053299 8.092469
219.089859 66.831871
219.762085 5.098214
220.061691 15.88908
220.091171 218.422104
220.279816 3.909206
221.038925 3432.133057
221.077362 101.251999
221.114838 10.6644
221.159241 11.23465
221.186279 16.582081
221.215393 4.029412
221.375717 6.50287
221.458588 6.377653
221.546646 4.298011
222.065765 87.870903
222.107727 11.69753
227.081146 9.831801
228.11937 9.028846
229.071777 17.878571
229.103607 21.08333
230.071396 90.981888
230.63765 4.655869
230.743317 4.126008
231.067902 302.4021
231.850525 5.973011
232.053848 154.943497
232.075333 1432.187988
232.34201 4.137977
232.356461 4.141633
232.442795 4.905869
232.654984 7.141875
233.034592 20.63327
233.083267 2298.330078
233.143127 11.67188
233.217682 5.67889
233.256561 5.742788
233.416122 8.027902
233.834732 7.815476
233.873383 2.59003
234.068344 523.236694
234.103622 463.663696
234.43071 8.268168
234.711044 14.13782
236.165009 1.253906
239.090225 72.113251
239.807007 15.59534
240.116776 14.7044
241.001678 28.95409
241.045074 6920.833984
241.110092 61.88673
241.180145 22.956909
241.222626 5.000274
241.255646 7.202164
241.276459 3.997044
241.354156 34.819599
241.368591 2.071023
241.390152 1.878125
241.422577 4.018674
241.575745 1.278125
241.668243 20.26536
241.709152 3.855015
241.947815 11.25469
242.071335 121.368401
242.292038 7.717014
243.66629 6.359375
243.823242 5.755388
244.079193 19.184601
245.083435 193.120499
245.548187 5.664412
245.662674 5.128125
246.576492 25.58534
247.099579 321.639587
249.078415 244.868805
249.115005 33.62587
249.648514 7.541337
250.11412 15.64063
257.107666 24.702431
257.668213 3.8125
257.725586 2.770089
258.062531 15.01644
259.098877 972.258728
259.31311 12.95565
259.454254 7.490057
259.561951 4.376202
259.613525 5.222826
260.084045 833.924011
260.1492 5.078125
260.639282 4.278125
260.718445 9.538517
263.095093 53.0825
264.09552 47.605251
265.105255 55.25383
274.635254 7.74569
275.096771 40.69342
275.402435 16.54191
275.458221 4.433681
275.472778 14.16828
275.489655 30.86812
275.5224 17.8344
275.557495 12.31431
275.618805 6.541667
275.67218 10.53429
275.726196 9.298077
275.875153 16.17004
275.908478 15.87946
275.949219 18.639391
276.102051 91.95005
276.250641 18.120859
276.631897 14.6377
276.671875 5.263432
276.897614 3.654412
276.987061 12.66501
277.051697 73.268517
277.110504 23380.730469
277.180298 27.330549
277.205414 4.371228
277.227844 1.004464
277.282135 5.828906
277.320343 1.640625
277.351013 44.901749
277.384857 59.895161
277.401459 3.375401
277.423981 26.929779
277.449493 23.640141
277.473755 12.30061
277.491486 55.970921
277.528015 15.92578
277.581909 25.67915
277.601074 41.31572
277.616272 23.457319
277.680145 32.880569
277.723267 60.182709
277.755432 12.38494
277.778625 30.36882
277.793396 27.224001
277.818817 6.209048
277.871918 16.90477
277.903809 20.80208
278.033569 14.79238
278.20636 10.94558
278.638611 13.26563
278.794342 31.297871
278.963562 12.37054
279.735535 5.517805
280.267822 8.610734
281.036011 1.751042
294.110687 6.545928
295.119476 201.145798
295.433044 5.638432
315.210144 3.28125
361.674683 6.362553
405.680054 19.814039
438.121735 21.04595
450.13501 14.50329
452.418213 2.988407
460.142944 16.2505
465.886536 17.815069
555.607666 2.676042
589.63678 6.536161
681.945923 13.18521
815.044434 1.255208
1211.269531 5.213542
1226.366455 7.294756
1317.75061 12.50055
1470.328979 18.523199
1557.642334 12.81332
