>compound MLS001148076-01!
>formula C12H10N2O5
>ionization [M+H]+
>parentmass 263.0662478720905
#inchi InChI=1S/C12H10N2O5/c1-2-14-7-4-9-8(18-5-19-9)3-6(7)11(15)10(13-14)12(16)17/h3-4H,2,5H2,1H3,(H,16,17)
#inchikey VDUWPHTZYNWKRN
#Ion_Source LC-ESI
#Instrument qTof
#Compound_Source NIH Pharmacologically Active Library
#PI Dorrestein
#Data_Collector VP/LMS
#Scan -1
#Precursor_MZ 263.067
#ExactMass 262.059
#Charge 1
#CAS_Number N/A
#Pubmed_ID N/A
#Smiles CCn1nc(C(=O)O)c(=O)c2cc3OCOc3cc12
#INCHI_AUX N/A
#Library_Class 1
#SpectrumID CCMSLIB00000085158
#IonMode Positive
#UpdateWorkflowName UPDATE-SINGLE-ANNOTATED-GOLD
#LibraryQualityString Gold
#TaskID d252d724072548979f1f6f1ced849daf
##Scan# 1532
#SpectrumFile p3-F06_GF6_01_18287.mzXML
#LibraryName Pharm_Active_Library.mgf
#MQScore -1
#Organism Pharm_Active_Library
#TIC_Query 0
#RT_Query -1
#MZErrorPPM -1
#SharedPeaks 0
#MassDiff 0
#LibMZ -1
#SpecMZ 263.067
#SpecCharge 0
#internalFilename spec-00000.mgf

>collision 10
45.310677 148.0
45.479656 156.0
45.802387 144.0
45.848202 160.0
46.026279 160.0
46.120853 184.0
46.641396 56.0
46.709389 152.0
47.073315 152.0
47.245544 168.0
47.728359 208.0
47.740738 88.0
47.861839 168.0
48.005161 140.0
48.390701 164.0
48.419785 156.0
48.601395 112.0
49.647697 168.0
50.447514 52.0
50.542278 44.0
50.679634 112.0
50.831367 228.0
50.959167 96.0
51.05299 44.0
51.245171 144.0
51.419151 60.0
51.872601 232.0
52.228737 144.0
52.366924 264.0
53.255058 232.0
53.444057 132.0
53.579472 208.0
54.206333 132.0
54.457218 180.0
54.627739 228.0
54.789688 140.0
54.919418 36.0
55.594109 156.0
55.705475 168.0
57.115196 164.0
58.589752 176.0
58.974319 96.0
59.222206 60.0
60.015232 184.0
61.468769 136.0
62.044392 76.0
63.474567 120.0
64.198158 184.0
64.368912 236.0
64.62468 108.0
64.655083 188.0
64.933868 132.0
65.987068 164.0
68.043343 152.0
68.275047 64.0
68.85685 168.0
68.903107 172.0
69.280327 152.0
69.731689 208.0
69.909645 236.0
71.155006 232.0
71.286026 184.0
71.380165 152.0
72.01049 88.0
72.037521 152.0
74.120155 84.0
74.248726 200.0
76.124756 80.0
76.592628 180.0
76.64489 148.0
77.00428 128.0
77.283997 92.0
78.052315 228.0
78.370926 172.0
78.723732 152.0
79.291649 120.0
79.371429 204.0
80.230232 144.0
80.258766 76.0
81.724022 120.0
81.922073 180.0
82.624374 140.0
82.665993 196.0
82.837997 180.0
83.059166 240.0
85.051872 164.0
85.276787 152.0
86.517464 48.0
87.008774 180.0
88.135658 48.0
88.163696 40.0
88.603432 120.0
88.652153 164.0
89.646317 140.0
90.203125 168.0
90.714256 140.0
91.335228 132.0
91.365662 96.0
91.594116 160.0
91.941139 136.0
92.420799 164.0
92.823074 140.0
93.168571 156.0
93.201241 204.0
93.528191 152.0
93.72464 244.0
94.029343 172.0
94.481522 80.0
94.905701 144.0
95.10553 144.0
95.383308 148.0
95.41375 152.0
96.232742 156.0
97.062408 168.0
97.341064 136.0
98.505119 112.0
99.598602 148.0
99.801315 120.0
101.26416 112.0
101.312241 176.0
101.839828 148.0
102.523911 168.0
103.026192 200.0
103.057564 224.0
103.256798 148.0
103.627258 100.0
104.014618 184.0
104.045189 176.0
104.3722 132.0
104.795593 176.0
105.009102 624.0
105.0439 1276.0
105.283134 92.0
105.342369 156.0
106.009407 84.0
106.028 432.0
106.044502 196.0
106.097549 196.0
106.625099 120.0
107.032158 180.0
107.061264 128.0
107.213722 164.0
107.498322 192.0
107.948677 72.0
108.263245 128.0
108.789917 48.0
109.496918 212.0
109.555244 172.0
109.972305 204.0
110.195763 72.0
111.240845 52.0
111.854691 240.0
111.966286 176.0
112.842033 176.0
113.125534 120.0
113.339455 132.0
113.485718 180.0
113.721199 92.0
114.037682 168.0
114.65918 176.0
114.874542 156.0
115.201172 228.0
115.479065 184.0
116.04657 180.0
116.258942 112.0
116.856331 212.0
117.080208 160.0
117.768242 204.0
118.172508 108.0
118.274231 160.0
118.501625 96.0
119.82048 184.0
121.028358 160.0
121.692741 72.0
122.020126 156.0
122.510918 168.0
122.636528 96.0
123.38047 112.0
123.911652 176.0
124.080093 168.0
124.457291 140.0
126.45929 120.0
126.566757 220.0
127.340469 40.0
128.055725 140.0
128.382523 212.0
129.023819 224.0
129.508102 156.0
130.106781 160.0
130.174896 152.0
130.211243 128.0
130.449829 140.0
130.586258 152.0
130.804703 80.0
130.948166 160.0
131.022522 1540.0
131.057312 324.0
131.095779 96.0
131.296875 36.0
131.538742 188.0
132.042679 752.0
132.063141 180.0
132.272537 192.0
132.579468 72.0
133.027267 1124.0
133.073227 340.0
133.727844 108.0
134.021484 920.0
134.049683 260.0
134.075638 136.0
134.100983 100.0
134.142487 56.0
134.835938 132.0
135.019913 152.0
135.075424 96.0
135.110138 156.0
135.239731 208.0
136.178802 96.0
136.222931 64.0
136.664673 212.0
136.690277 28.0
136.708893 208.0
137.893677 72.0
139.125839 60.0
139.212723 124.0
139.40535 200.0
139.802795 64.0
140.790619 180.0
141.438477 168.0
141.744003 144.0
142.603134 104.0
142.933701 100.0
143.05986 244.0
143.18605 136.0
144.762314 156.0
146.125748 216.0
146.164246 220.0
147.041473 160.0
147.732559 116.0
148.0327 204.0
148.762527 176.0
149.034256 256.0
150.459427 128.0
151.089981 152.0
151.694885 132.0
153.065887 276.0
154.83165 192.0
155.98793 116.0
156.448166 180.0
157.001343 216.0
157.041245 184.0
157.562988 116.0
157.885452 168.0
158.471222 208.0
159.053528 148.0
159.253937 68.0
160.030075 124.0
160.065994 384.0
160.320724 88.0
160.540054 224.0
160.605637 148.0
160.661133 128.0
160.749451 104.0
161.033173 5608.0
161.070831 504.0
161.105469 48.0
161.142029 76.0
161.176208 184.0
161.380707 208.0
162.036682 548.0
162.127731 76.0
162.150543 48.0
162.18602 64.0
162.399017 68.0
162.599472 136.0
162.835587 120.0
163.04393 144.0
164.026428 180.0
164.605591 36.0
169.156601 148.0
170.801819 152.0
171.049026 144.0
171.468399 100.0
171.601349 144.0
172.089264 152.0
173.012207 196.0
173.033813 316.0
173.740784 228.0
174.016373 212.0
174.050079 196.0
174.307938 116.0
175.04715 160.0
175.112991 152.0
175.460831 204.0
175.487198 72.0
176.643982 208.0
176.662491 112.0
177.621475 164.0
177.701065 264.0
178.006317 176.0
178.112564 172.0
179.174026 132.0
179.208664 48.0
179.389893 136.0
179.64325 200.0
180.484573 120.0
181.357346 176.0
181.657669 224.0
181.950211 184.0
182.592438 184.0
182.896484 128.0
183.745392 176.0
184.207047 132.0
184.585434 124.0
185.286484 148.0
185.394867 208.0
185.674118 188.0
185.77449 72.0
186.083542 156.0
187.044495 212.0
188.144928 112.0
188.811676 152.0
188.860901 172.0
188.921082 232.0
188.962326 160.0
189.028488 13912.0
189.06134 604.0
189.109909 60.0
189.164658 88.0
189.263687 92.0
189.301544 44.0
189.33989 44.0
189.449463 32.0
189.55484 104.0
189.63031 28.0
189.649506 92.0
189.690628 56.0
189.71405 136.0
189.770126 60.0
189.893539 52.0
189.931931 80.0
189.983948 104.0
190.032089 1332.0
190.184387 60.0
190.676041 44.0
190.901474 88.0
191.029312 188.0
191.046188 372.0
191.096786 48.0
191.129807 100.0
191.396805 84.0
191.476669 44.0
191.796295 68.0
192.056335 212.0
192.654526 44.0
193.362427 164.0
193.874786 124.0
194.659897 156.0
197.033096 32.0
198.070999 72.0
198.9319 180.0
202.046082 140.0
202.657654 60.0
204.480835 56.0
205.672272 36.0
206.990295 192.0
207.037628 776.0
208.039429 128.0
208.763794 44.0
210.33696 44.0
211.093948 172.0
212.76004 148.0
215.404358 140.0
215.427719 96.0
215.489075 192.0
216.161621 216.0
216.882095 84.0
216.937805 108.0
217.025116 176.0
217.059082 9804.0
217.143066 68.0
217.20723 144.0
217.269196 68.0
217.289734 120.0
217.322006 44.0
217.358047 172.0
217.5392 116.0
217.568558 188.0
217.697754 76.0
217.744736 60.0
217.855804 84.0
217.932755 52.0
218.00621 64.0
218.062057 968.0
218.394318 92.0
219.018341 64.0
219.063354 316.0
219.198059 68.0
219.221634 140.0
219.286484 124.0
219.419128 84.0
219.442719 72.0
219.69046 100.0
220.074158 60.0
221.718933 132.0
226.243713 132.0
226.375458 36.0
229.539856 108.0
235.04425 264.0
235.069427 384.0
236.064423 196.0
244.927551 40.0
244.949356 32.0
245.05574 1912.0
245.323318 92.0
245.413727 52.0
245.48233 64.0
246.051788 232.0
246.356293 44.0
247.069107 136.0
247.469727 108.0
247.798599 68.0
247.864395 84.0
251.781097 88.0
263.064026 792.0
263.150085 156.0
264.062988 272.0
264.194031 88.0
264.880341 44.0
265.071503 180.0
287.828583 84.0
328.577454 20.0
331.828979 72.0
348.3862 44.0
372.349457 56.0
378.566467 56.0
386.476593 48.0
415.150818 20.0
425.092804 84.0
429.973785 100.0
715.183289 92.0
736.52533 144.0
774.080505 120.0
778.111633 196.0
818.611877 92.0
924.980896 80.0
928.464966 80.0
940.976196 152.0
968.720154 208.0
1036.646484 200.0
1052.75647 128.0
1078.118774 144.0
1093.044678 96.0
1098.869507 160.0
1105.848145 148.0
1111.60083 148.0
1122.684082 216.0
1144.322021 156.0
1147.980957 176.0
1150.680054 76.0
1156.690186 36.0
1169.506104 76.0
1171.671753 244.0
1177.333374 132.0
1181.578369 180.0
1196.099976 204.0
1203.898193 144.0
1205.217529 172.0
1210.973511 132.0
1215.570068 272.0
1222.944092 112.0
1228.902588 68.0
1239.720459 128.0
1250.691284 248.0
1262.424683 216.0
1263.223999 164.0
1272.565063 164.0
1273.431396 160.0
1273.609009 32.0
1293.862183 136.0
1315.090698 112.0
1316.513062 88.0
1318.615479 264.0
1320.922119 164.0
1321.081299 164.0
1328.354614 184.0
1330.422974 40.0
1337.350708 200.0
1351.150513 140.0
1353.661133 132.0
1357.699219 144.0
1358.528076 148.0
1359.327759 192.0
1365.741821 184.0
1372.229858 256.0
1373.771362 152.0
1375.75647 148.0
1375.808228 132.0
1387.772095 128.0
1393.301636 172.0
1399.333496 224.0
1400.003662 100.0
1407.251953 208.0
1410.090698 212.0
1421.496826 128.0
1428.732788 220.0
1440.720093 196.0
1444.908569 80.0
1446.398193 120.0
1447.391235 96.0
1454.943237 176.0
1456.712769 148.0
1461.190674 156.0
1461.555908 156.0
1461.609131 52.0
1465.942139 124.0
1474.06189 208.0
1475.483643 172.0
1483.974731 200.0
1487.634399 164.0
1493.051514 188.0
1496.237305 148.0
1496.329712 160.0
1497.785278 108.0
1501.717163 196.0
