>compound ethyl 4-[6-(diaminomethylideneamino)hexanoyloxy]benzoate
>formula C16H23N3O4
>ionization [M+H]+
>parentmass 322.17613266809053
#inchi InChI=1S/C16H23N3O4/c1-2-22-15(21)12-7-9-13(10-8-12)23-14(20)6-4-3-5-11-19-16(17)18/h7-10H,2-6,11H2,1H3,(H4,17,18,19)
#inchikey YKGYIDJEEQRWQH
#Ion_Source LC-ESI
#Instrument qTof
#Compound_Source Commercial
#PI Dorrestein
#Data_Collector Garg_Neha
#Scan -1
#Precursor_MZ 322.176
#ExactMass 321.169
#Charge 1
#CAS_Number N/A
#Pubmed_ID N/A
#Smiles CCOC(=O)c1ccc(OC(=O)CCCCCN=C(N)N)cc1
#INCHI_AUX N/A
#Library_Class 1
#SpectrumID CCMSLIB00000078976
#IonMode Positive
#UpdateWorkflowName UPDATE-SINGLE-ANNOTATED-GOLD
#LibraryQualityString Gold
#TaskID 278b19f5865741e282cec7349aa7e7a1
##Scan# 1157
#SpectrumFile NCP003352_A2_B11_BC4_01_15718.mzXML
#LibraryName NIHcollectionI_05062014.mgf
#MQScore -1
#Organism NIHcollectionI_05062014
#TIC_Query 0
#RT_Query -1
#MZErrorPPM -1
#SharedPeaks 0
#MassDiff 0
#LibMZ -1
#SpecMZ 322.176
#SpecCharge 0
#internalFilename spec-00000.mgf

>collision 0
62.0009 2.84
94.0656 8.26
95.0492 16.09
96.0807 49.54
97.0661 7.48
111.0918 16.48
114.0912 86.41
121.0287 100.0
122.0598 4.3
123.081 9.88
139.0386 65.87
139.0862 38.88
156.113 20.44
167.0706 32.67
202.0821 3.52
259.1074 25.48
277.1183 24.01
278.126 7.68
294.1452 82.3
305.1497 7.78
322.1789 2444.01
