>compound Vincristine
>formula C46H56N4O10
>ionization [M+H]+
>parentmass 825.405945
#inchi InChI=1S/C46H56N4O10/c1-7-42(55)22-28-23-45(40(53)58-5,36-30(14-18-48(24-28)25-42)29-12-9-10-13-33(29)47-36)32-20-31-34(21-35(32)57-4)50(26-51)38-44(31)16-19-49-17-11-15-43(8-2,37(44)49)39(60-27(3)52)46(38,56)41(54)59-6/h9-13,15,20-21,26,28,37-39,47,55-56H,7-8,14,16-19,22-25H2,1-6H3/t28-,37-,38+,39+,42-,43+,44-,45-,46-/m0/s1
#inchikey OGWKCGZFUXNPDA
#origInchi InChI=1S/C46H56N4O10.H2O4S/c1-7-42(55)22-28-23-45(40(53)58-5,36-30(14-18-48(24-28)25-42)29-12-9-10-13-33(29)47-36)32-20-31-34(21-35(32)57-4)50(26-51)38-44(31)16-19-49-17-11-15-43(8-2,37(44)49)39(60-27(3)52)46(38,56)41(54)59-6;1-5(2,3)4/h9-13,15,20-21,26,28,37-39,47,55-56H,7-8,14,16-19,22-25H2,1-6H3;(H2,1,2,3,4)/t28-,37-,38+,39+,42-,43+,44-,45-,46-;/m0./s1
#Ion_Source LC-ESI
#Instrument qTof
#Compound_Source Commercial
#PI Dorrestein
#Data_Collector Garg_Neha
#Scan -1
#Precursor_MZ 825.407
#ExactMass 824.4
#Charge 1
#CAS_Number 2068-78-2
#Pubmed_ID N/A
#Smiles C1(=CC2=C(C=C1[C@@]3(C4=C(C5=C(N4)C=CC=C5)CCN6C[C@](C3)(C[C@@](C6)(O)CC)[H])C(OC)=O)[C@]78[C@@](N2C=O)([C@]([C@@H]([C@]9([C@@]7(N(CC8)CC=C9)[H])CC)OC(=O)C)(C(OC)=O)O)[H])OC.S(=O)(=O)(O)O
#INCHI_AUX N/A
#Library_Class 1
#SpectrumID CCMSLIB00000078063
#IonMode Positive
#UpdateWorkflowName UPDATE-SINGLE-ANNOTATED-GOLD
#LibraryQualityString Gold
#TaskID 77f51c88eb8b467eb4a01dd2d0cb90d2
##Scan# 1108
#SpectrumFile Plate1_61_88_GG4_01_16491.mzXML
#LibraryName FDALibrary_2_04302014.mgf
#MQScore -1
#Organism FDALibrary_2_04302014
#TIC_Query 0
#RT_Query -1
#MZErrorPPM -1
#SharedPeaks 0
#MassDiff 0
#LibMZ -1
#SpecMZ 825.407
#SpecCharge 0
#internalFilename spec-00000.mgf

>collision 0
224.1245 16.47
225.133 17.22
265.1645 6.02
323.167 6.19
337.1831 6.52
353.1866 9.95
355.1984 11.45
413.1983 7.94
453.1975 6.44
455.2178 5.43
513.2341 5.43
538.2641 8.44
543.2291 5.77
544.2587 5.35
555.2245 7.36
568.262 5.85
588.2803 5.6
590.2828 6.35
594.2568 5.69
599.2764 9.11
602.2828 5.69
604.2881 7.19
618.3159 9.11
634.3167 5.6
642.2788 6.19
662.3205 6.02
663.3536 17.22
677.3513 7.94
678.3774 12.12
679.3475 6.19
682.3293 6.44
687.3655 7.19
695.3541 6.19
705.3684 33.61
706.3719 20.65
707.3774 6.44
723.3811 27.76
724.3751 14.38
725.3854 6.94
733.3594 19.73
735.3634 7.61
747.3941 12.54
748.3803 14.38
749.3939 8.78
750.3988 7.78
764.3838 5.94
765.3918 100.0
766.3924 51.92
767.4019 13.04
768.398 6.27
775.3626 6.69
783.3904 10.62
807.399 59.87
808.4001 30.77
809.4093 20.32
824.4016 59.62
825.4125 569.82
