>compound Roxithromycin (Roxl-150)
>formula C41H76N2O15
>ionization [M+Na]+
>parentmass 859.514709
#inchi InChI=1S/C41H76N2O15/c1-15-29-41(10,49)34(45)24(4)31(42-53-21-52-17-16-50-13)22(2)19-39(8,48)36(58-38-32(44)28(43(11)12)18-23(3)54-38)25(5)33(26(6)37(47)56-29)57-30-20-40(9,51-14)35(46)27(7)55-30/h22-30,32-36,38,44-46,48-49H,15-21H2,1-14H3/b42-31+/t22-,23-,24+,25+,26-,27+,28+,29-,30+,32-,33-,34-,35+,36-,38+,39-,40-,41-/m1/s1
#inchikey RXZBMPWDPOLZGW
#Ion_Source LC-ESI
#Instrument qTof
#Compound_Source Commercial
#PI Dorrestein
#Data_Collector Garg_Neha
#Scan -1
#Precursor_MZ 859.514
#ExactMass 836.525
#Charge 1
#CAS_Number 80214-83-1
#Pubmed_ID N/A
#Smiles [C@@]1([C@H](OC([C@@H]([C@@H]([C@@H]([C@H]([C@](C[C@H](C(/[C@@H]([C@H]1O)C)=N\OCOCCOC)C)(C)O)O[C@H]2[C@@H]([C@H](C[C@H](O2)C)N(C)C)O)C)O[C@@H]3O[C@H]([C@@H]([C@](C3)(C)OC)O)C)C)=O)CC)(O)C
#INCHI_AUX N/A
#Library_Class 1
#SpectrumID CCMSLIB00000078497
#IonMode Positive
#UpdateWorkflowName UPDATE-SINGLE-ANNOTATED-GOLD
#LibraryQualityString Gold
#TaskID 77f51c88eb8b467eb4a01dd2d0cb90d2
##Scan# 1194
#SpectrumFile Plate8_1_20_GC9_01_15762.mzXML
#LibraryName FDALibrary_2_04302014.mgf
#MQScore -1
#Organism FDALibrary_2_04302014
#TIC_Query 0
#RT_Query -1
#MZErrorPPM -1
#SharedPeaks 0
#MassDiff 0
#LibMZ -1
#SpecMZ 859.514
#SpecCharge 0
#internalFilename spec-00000.mgf

>collision 0
294.1264 3.44
306.1632 2.03
309.1619 6.26
310.1624 2.53
325.1935 2.77
391.2534 11.96
392.2553 4.68
404.2405 1.81
409.2612 2.8
422.2514 2.95
453.256 14.71
454.2598 4.04
457.2655 1.78
466.2728 8.44
467.2789 2.75
498.3141 1.73
512.3171 3.07
522.3 1.86
538.2949 8.1
539.2955 2.08
552.3224 1.73
579.3606 7.16
580.3538 9.85
581.3432 2.6
582.3465 1.78
595.3498 4.38
596.3421 2.35
597.3697 36.0
598.3729 13.82
599.3765 2.55
611.3493 21.49
612.3516 7.48
613.3558 4.11
624.3754 4.21
640.4113 1.73
641.395 2.28
669.3693 1.73
683.4017 3.24
684.4039 2.57
701.4166 10.5
702.4158 4.21
710.4123 1.73
737.4622 1.88
738.4423 1.73
739.4484 2.97
753.4489 2.23
754.4402 1.88
755.4659 100.0
756.468 40.31
757.4679 15.52
841.5029 2.28
859.5153 504.09
